#
# CMB Power Spectrum
#
# Computed for different values of the electron Thompson
# scattering optical depth: tau_e = {0,0.05,0.1,0.2,0.5}
#
# Based on CAMB output, reformatted for the ISM/IGM Book
# Figure 9.5
#
# l = power spectrum angular multipole moment
# tauXX = Delta_T in uK for tau_e = XX
#
   l  tau0.00   tau0.05   tau0.10   tau0.20   tau0.50
   2  34.26806  34.57745  34.79799  35.08133  35.73653 
   3  33.43950  33.43202  33.57827  33.85705  34.69726 
   4  32.68639  32.37592  32.39290  32.60061  33.57231 
   5  32.14499  31.57626  31.43485  31.51761  32.55611 
   6  31.78522  31.01790  30.70765  30.62434  31.66228 
   7  31.56327  30.65224  30.18377  29.90736  30.88592 
   8  31.43788  30.42203  29.81895  29.35098  30.20844 
   9  31.39172  30.29868  29.57803  28.91591  29.61689 
  10  31.40207  30.25343  29.43552  28.59738  29.10223 
  11  31.45727  30.26252  29.37039  28.37886  28.68571 
  12  31.56200  30.32854  29.37975  28.25580  28.36459 
  13  31.69069  30.42499  29.42924  28.19042  28.09199 
  14  31.83237  30.54046  29.50475  28.16736  27.85803 
  15  31.99531  30.67963  29.61098  28.18936  27.67616 
  16  32.18695  30.84769  29.75214  28.26004  27.55812 
  17  32.40062  31.04046  29.92290  28.37182  27.49764 
  18  32.62208  31.24100  30.10465  28.50316  27.47144 
  19  32.86792  31.46729  30.31452  28.67019  27.49545 
  20  33.11797  31.69700  30.52818  28.84545  27.53906 
  21  33.37214  31.93118  30.74752  29.02878  27.60127 
  22  33.63183  32.17297  30.97322  29.22071  27.68104 
  23  33.89543  32.41759  31.20160  29.41717  27.77301 
  24  34.16285  32.66650  31.43422  29.61908  27.87687 
  25  34.43399  32.92112  31.67175  29.82616  27.99143 
  26  34.70735  33.17680  31.90925  30.03581  28.11227 
  27  34.98571  33.43651  32.15276  30.25012  28.24093 
  28  35.26471  33.69718  32.39599  30.46523  28.37199 
  29  35.54715  33.96174  32.64353  30.68338  28.50667 
  30  35.83295  34.23010  32.89377  30.90453  28.64350 
  31  36.11786  34.49928  33.14363  31.12475  28.77777 
  32  36.40604  34.76924  33.39611  31.34629  28.91211 
  33  36.69741  35.04283  33.65264  31.57024  29.04806 
  34  36.99054  35.31855  33.91018  31.79465  29.18459 
  35  37.28673  35.59635  34.17016  32.02187  29.32201 
  36  37.58191  35.87617  34.43109  32.24748  29.45929 
  37  37.87743  36.15384  34.69150  32.47153  29.59561 
  38  38.17591  36.43624  34.95569  32.69862  29.73483 
  39  38.47726  36.71920  35.22215  32.92719  29.87725 
  40  38.77757  37.00270  35.48803  33.15419  30.01949 
  41  39.07941  37.28807  35.75472  33.38113  30.16405 
  42  39.38020  37.57127  36.02083  33.60506  30.30676 
  43  39.67997  37.85499  36.28774  33.83046  30.44930 
  44  39.97874  38.13791  36.55270  34.05143  30.58856 
  45  40.28151  38.42395  36.82119  34.27681  30.72979 
  46  40.58571  38.71175  37.09178  34.50507  30.87119 
  47  40.89009  38.99872  37.36174  34.73327  31.00952 
  48  41.19345  39.28613  37.63110  34.96141  31.14306 
  49  41.49699  39.57398  37.90119  35.18806  31.27219 
  50  41.80431  39.86477  38.17329  35.42033  31.39984 
  51  42.11057  40.15594  38.44606  35.65249  31.52206 
  52  42.42051  40.44997  38.72079  35.89011  31.64332 
  53  42.72821  40.74187  38.99359  36.12478  31.75689 
  54  43.03371  41.03048  39.26321  36.35657  31.86220 
  55  43.33820  41.32070  39.53353  36.58961  31.96404 
  56  43.64745  41.61250  39.80703  36.82662  32.06712 
  57  43.95794  41.90704  40.08242  37.06481  32.16831 
  58  44.26963  42.20427  40.35963  37.30550  32.27073 
  59  44.58251  42.50059  40.63742  37.54730  32.36974 
  60  44.89432  42.79720  40.91577  37.78756  32.46844 
  61  45.21062  43.09756  41.19709  38.03288  32.56993 
  62  45.52472  43.39470  41.47650  38.27401  32.66803 
  63  45.83667  43.69096  41.75404  38.51363  32.76278 
  64  46.15301  43.99091  42.03451  38.75694  32.86335 
  65  46.46612  44.28770  42.31430  38.99872  32.96362 
  66  46.78247  44.58699  42.59460  39.24156  33.06660 
  67  47.09883  44.88652  42.87657  39.48417  33.17379 
  68  47.41729  45.18850  43.16133  39.73034  33.28814 
  69  47.73782  45.49176  43.44652  39.97874  33.40808 
  70  48.06038  45.79738  43.73442  40.22810  33.53654 
  71  48.38388  46.10315  44.02272  40.47963  33.67046 
  72  48.70832  46.40905  44.31140  40.73205  33.80976 
  73  49.03162  46.71616  44.60045  40.98292  33.95291 
  74  49.35585  47.02234  44.88875  41.23470  34.09838 
  75  49.68098  47.32864  45.17743  41.48735  34.24909 
  76  50.00700  47.63612  45.46757  41.74087  34.40058 
  77  50.33289  47.94372  45.75697  41.99405  34.55575 
  78  50.66064  48.25246  46.04889  42.24926  34.71311 
  79  50.98824  48.56233  46.34005  42.50412  34.87119 
  80  51.31764  48.87331  46.63368  42.76096  35.02999 
  81  51.64785  49.18536  46.92760  43.01860  35.18949 
  82  51.97884  49.49849  47.22288  43.27817  35.35110 
  83  52.31157  49.81265  47.51947  43.53849  35.51056 
  84  52.64504  50.12784  47.81631  43.80069  35.67212 
  85  52.97924  50.44304  48.11445  44.06245  35.83295 
  86  53.31322  50.75924  48.41177  44.32381  35.99166 
  87  53.64979  51.07739  48.71345  44.58924  36.15522 
  88  53.98518  51.39455  49.01224  44.85198  36.31391 
  89  54.32127  51.71363  49.31329  45.11762  36.47465 
  90  54.65894  52.03268  49.61451  45.38282  36.63468 
  91  54.99545  52.35170  49.91493  45.64866  36.79266 
  92  55.33263  52.67067  50.21753  45.91514  36.95132 
  93  55.67136  52.99151  50.52029  46.18225  37.11199 
  94  56.00803  53.31135  50.82224  46.44782  37.26929 
  95  56.34625  53.63208  51.12534  46.71616  37.42727 
  96  56.68333  53.95090  51.42665  46.98085  37.58324 
  97  57.02193  54.27154  51.73007  47.24934  37.74123 
  98  57.36114  54.59304  52.03364  47.51842  37.89987 
  99  57.69922  54.91357  52.33641  47.78493  38.05785 
 100  58.03792  55.23495  52.64124  48.05413  38.21649 
 101  58.37637  55.55628  52.94431  48.32287  38.37577 
 102  58.71797  55.88023  53.25129  48.59424  38.53959 
 103  59.05675  56.20142  53.55558  48.86410  38.70013 
 104  59.39613  56.52345  53.86093  49.13349  38.86258 
 105  59.73525  56.84540  54.16457  49.40344  39.02435 
 106  60.07412  57.16730  54.47018  49.67393  39.18801 
 107  60.41192  57.48739  54.77225  49.94197  39.34972 
 108  60.75031  57.80830  55.07631  50.21155  39.51455 
 109  61.08928  58.12917  55.38050  50.48069  39.67997 
 110  61.42638  58.44998  55.68393  50.75037  39.84595 
 111  61.76407  58.76989  55.98661  51.01862  40.01250 
 112  62.10072  59.08892  56.28854  51.28743  40.17960 
 113  62.43877  59.40875  56.59152  51.55677  40.34972 
 114  62.77499  59.72771  56.89376  51.82470  40.51913 
 115  63.11181  60.04748  57.19615  52.09415  40.69029 
 116  63.44683  60.36472  57.49696  52.36124  40.86074 
 117  63.78323  60.68361  57.79879  52.62984  41.03413 
 118  64.11864  61.00164  58.09991  52.89896  41.20801 
 119  64.45231  61.31802  58.40034  53.16578  41.38116 
 120  64.78580  61.63441  58.70008  53.43314  41.55599 
 121  65.11835  61.94917  58.99746  53.69916  41.72889 
 122  65.44922  62.26235  59.29502  53.96388  41.90107 
 123  65.77917  62.57476  59.59111  54.22822  42.07375 
 124  66.10825  62.88641  59.88656  54.49128  42.24689 
 125  66.43568  63.19652  60.17973  54.75308  42.41933 
 126  66.76152  63.50591  60.47313  55.01455  42.58990 
 127  67.08651  63.81301  60.76430  55.27386  42.76096 
 128  67.40919  64.11864  61.05407  55.53287  42.93134 
 129  67.73109  64.42360  61.34248  55.78978  43.09988 
 130  68.05219  64.72635  61.62954  56.04641  43.26892 
 131  68.37032  65.02846  61.91607  56.30186  43.43616 
 132  68.68843  65.32916  62.20048  56.55617  43.60390 
 133  69.00362  65.62774  62.48360  56.80845  43.76985 
 134  69.31738  65.92420  62.76544  57.05962  43.93404 
 135  69.62973  66.22009  63.04522  57.31056  44.09875 
 136  69.93997  66.51241  63.32298  57.55780  44.26059 
 137  70.24813  66.80419  63.59953  57.80484  44.42297 
 138  70.55353  67.09396  63.87331  58.04998  44.58363 
 139  70.85690  67.38026  64.14515  58.29151  44.74036 
 140  71.15827  67.66535  64.41583  58.53375  44.89878 
 141  71.45698  67.94778  64.68385  58.77244  45.05441 
 142  71.75444  68.22903  64.94998  59.01017  45.21062 
 143  72.04929  68.50839  65.21503  59.24694  45.36518 
 144  72.34086  68.78517  65.47748  59.48109  45.51813 
 145  72.63058  69.05939  65.73736  59.71265  45.66946 
 146  72.91914  69.33253  65.99622  59.94414  45.82248 
 147  73.20314  69.60172  66.25179  60.17225  45.97064 
 148  73.48537  69.86916  66.50488  60.39867  46.11832 
 149  73.76517  70.13487  66.75702  60.62343  46.26554 
 150  74.04121  70.39674  67.00597  60.84489  46.41013 
 151  74.31554  70.65691  67.25251  61.06554  46.55427 
 152  74.58552  70.91333  67.49593  61.28213  46.69582 
 153  74.85386  71.16811  67.73699  61.49797  46.83695 
 154  75.11857  71.41988  67.97646  61.71061  46.97659 
 155  75.38103  71.66938  68.21290  61.92173  47.11369 
 156  75.63927  71.91523  68.44559  62.12890  47.24934 
 157  75.89532  72.15885  68.67678  62.33619  47.38460 
 158  76.14854  72.39959  68.90501  62.53959  47.51736 
 159  76.39830  72.63746  69.13103  62.74073  47.64871 
 160  76.64529  72.87249  69.35344  62.93965  47.77970 
 161  76.88888  73.10540  69.57442  63.13636  47.90825 
 162  77.12976  73.33485  69.79183  63.33088  48.03645 
 163  77.36795  73.56222  70.00786  63.52322  48.16327 
 164  77.60219  73.78550  70.21965  63.71263  48.28768 
 165  77.83380  74.00676  70.43011  63.89992  48.41177 
 166  78.06216  74.22466  70.63710  64.08510  48.53452 
 167  78.28793  74.44058  70.84208  64.26819  48.65593 
 168  78.50987  74.65253  71.04295  64.44765  48.77499 
 169  78.72801  74.86121  71.24113  64.62507  48.89274 
 170  78.94302  75.06664  71.43599  64.79969  49.00918 
 171  79.15428  75.26885  71.62820  64.97076  49.12331 
 172  79.36120  75.46655  71.81644  65.13908  49.23515 
 173  79.56444  75.66109  72.00069  65.30391  49.34369 
 174  79.76466  75.85249  72.18240  65.46602  49.45200 
 175  79.96124  76.04078  72.36090  65.62621  49.55805 
 176  80.15298  76.22467  72.53482  65.78146  49.66186 
 177  80.34115  76.40485  72.70626  65.93406  49.76344 
 178  80.52515  76.58133  72.87386  66.08404  49.86281 
 179  80.70564  76.75350  73.03698  66.22990  49.95998 
 180  80.88263  76.92334  73.19836  66.37469  50.05597 
 181  81.05553  77.08891  73.35530  66.51466  50.14978 
 182  81.22438  77.25089  73.50919  66.65208  50.24042 
 183  81.38857  77.40865  73.65868  66.78548  50.32892 
 184  81.54999  77.56288  73.80515  66.91637  50.41627 
 185  81.70679  77.71358  73.94795  67.04401  50.50148 
 186  81.85780  77.85820  74.08441  67.16621  50.58162 
 187  82.00671  78.00064  74.21995  67.28745  50.66261 
 188  82.15108  78.13962  74.35187  67.40475  50.74052 
 189  82.29095  78.27388  74.47886  67.51815  50.81634 
 190  82.42937  78.40600  74.60496  67.63136  50.89204 
 191  82.56028  78.53216  74.72416  67.73773  50.96273 
 192  82.68857  78.65495  74.84116  67.84247  51.03234 
 193  82.81184  78.77373  74.95332  67.94263  51.09892 
 194  82.93190  78.88916  75.06264  68.04043  51.16444 
 195  83.04758  79.00000  75.16782  68.13442  51.22694 
 196  83.15828  79.10625  75.26885  68.22463  51.28743 
 197  83.26584  79.20922  75.36644  68.31252  51.34589 
 198  83.36846  79.30826  75.46059  68.39664  51.40233 
 199  83.46736  79.40277  75.55064  68.47774  51.45678 
 200  83.56195  79.49403  75.63729  68.55508  51.51019 
 201  83.65226  79.58078  75.71988  68.62944  51.55967 
 202  83.73828  79.66367  75.79842  68.70007  51.60814 
 203  83.82005  79.74208  75.87292  68.76700  51.65366 
 204  83.89636  79.81541  75.94340  68.83022  51.69526 
 205  83.96904  79.88554  76.00921  68.88976  51.73587 
 206  84.03690  79.94998  76.07101  68.94491  51.77258 
 207  84.09994  80.01125  76.12949  68.99710  51.80733 
 208  84.15819  80.06685  76.18267  69.04491  51.83918 
 209  84.21223  80.11866  76.23123  69.08835  51.86714 
 210  84.26090  80.16545  76.27647  69.12886  51.89316 
 211  84.30599  80.20848  76.31710  69.16502  51.91628 
 212  84.34512  80.24650  76.35313  69.19682  51.93554 
 213  84.38068  80.28014  76.38521  69.22572  51.95190 
 214  84.41090  80.30940  76.41335  69.25027  51.96634 
 215  84.43696  80.33430  76.43690  69.27048  51.97788 
 216  84.45827  80.35484  76.45587  69.28709  51.98558 
 217  84.47544  80.37102  76.47157  69.30080  51.99135 
 218  84.48787  80.38284  76.48268  69.31017  51.99423 
 219  84.49556  80.39030  76.48921  69.31595  51.99423 
 220  84.49912  80.39341  76.49249  69.31738  51.99135 
 221  84.49852  80.39278  76.49117  69.31595  51.98558 
 222  84.49260  80.38719  76.48660  69.31089  51.97788 
 223  84.48195  80.37661  76.47614  69.30080  51.96634 
 224  84.46774  80.36293  76.46307  69.28780  51.95287 
 225  84.44880  80.34488  76.44540  69.27121  51.93554 
 226  84.42512  80.32185  76.42316  69.25099  51.91628 
 227  84.39668  80.29446  76.39699  69.22572  51.89412 
 228  84.36409  80.26332  76.36753  69.19827  51.86906 
 229  84.32674  80.22780  76.33348  69.16647  51.84110 
 230  84.28523  80.18728  76.29482  69.13103  51.81023 
 231  84.23835  80.14237  76.25156  69.09052  51.77644 
 232  84.18729  80.09370  76.20499  69.04781  51.73973 
 233  84.13204  80.04061  76.15445  69.00072  51.70010 
 234  84.07140  79.98187  76.09862  68.94926  51.65753 
 235  84.00655  79.91996  76.03880  68.89412  51.61201 
 236  83.93688  79.85299  75.97500  68.83531  51.56258 
 237  83.86239  79.78158  75.90652  68.77209  51.51116 
 238  83.78365  79.70571  75.83469  68.70589  51.45678 
 239  83.70065  79.62663  75.75816  68.63599  51.39941 
 240  83.61160  79.54181  75.67760  68.56092  51.33810 
 241  83.51946  79.45313  75.59299  68.48357  51.27573 
 242  83.42302  79.36057  75.50430  68.40176  51.21035 
 243  83.32166  79.26349  75.41154  68.31691  51.14294 
 244  83.21539  79.16186  75.31467  68.22756  51.07152 
 245  83.10475  79.05567  75.21370  68.13516  50.99706 
 246  82.98975  78.94618  75.10859  68.03896  50.92052 
 247  82.87038  78.83210  74.99934  67.93894  50.84290 
 248  82.74599  78.71340  74.88658  67.83583  50.76120 
 249  82.61840  78.59135  74.77032  67.72961  50.67741 
 250  82.48576  78.46465  74.64918  67.61952  50.59150 
 251  82.34926  78.33454  74.52516  67.50629  50.50446 
 252  82.20766  78.19910  74.39623  67.38843  50.41230 
 253  82.06278  78.06087  74.26507  67.26887  50.32097 
 254  81.91337  77.91855  74.12894  67.14536  50.22549 
 255  81.75941  77.77210  73.98919  67.01791  50.12784 
 256  81.60147  77.62152  73.84646  66.88796  50.02899 
 257  81.43954  77.46741  73.69939  66.75478  49.92795 
 258  81.27361  77.30912  73.54862  66.61832  49.82369 
 259  81.10302  77.14726  73.39482  66.47857  49.71720 
 260  80.92960  76.98247  73.23797  66.33551  49.60947 
 261  80.75147  76.81276  73.07668  66.18988  49.49849 
 262  80.56922  76.63942  72.91159  66.03938  49.38522 
 263  80.38470  76.46371  72.74476  65.88854  49.27169 
 264  80.19539  76.28368  72.57341  65.73355  49.15486 
 265  80.00188  76.09928  72.39751  65.57439  49.03468 
 266  79.80476  75.91179  72.21980  65.41330  48.91421 
 267  79.60339  75.72054  72.03749  65.24799  48.78934 
 268  79.39836  75.52549  71.85193  65.07995  48.66210 
 269  79.18901  75.32662  71.66240  64.90762  48.53246 
 270  78.97658  75.12457  71.47028  64.73407  48.40145 
 271  78.76040  74.91929  71.27482  64.55618  48.26800 
 272  78.54171  74.71078  71.07672  64.37701  48.13419 
 273  78.31922  74.49899  70.87524  64.19424  47.99688 
 274  78.09290  74.28391  70.67107  64.00938  47.85708 
 275  77.86334  74.06619  70.46346  63.82084  47.71582 
 276  77.63118  73.84511  70.25311  63.63097  47.57415 
 277  77.39445  73.61997  70.03928  63.43658  47.42784 
 278  77.15504  73.39278  69.82263  63.24081  47.28107 
 279  76.91294  73.16215  69.60388  63.04205  47.13173 
 280  76.66747  72.92873  69.38155  62.84107  46.98085 
 281  76.41989  72.69319  69.15779  62.63865  46.82948 
 282  76.16758  72.45343  68.92967  62.43156  46.67440 
 283  75.91311  72.21219  68.69935  62.22379  46.51881 
 284  75.65646  71.96735  68.46678  62.01290  46.36162 
 285  75.39629  71.72099  68.23196  61.80049  46.20281 
 286  75.13322  71.47028  67.99412  61.58490  46.04129 
 287  74.86788  71.21797  67.75397  61.36693  45.87810 
 288  74.59960  70.96267  67.51074  61.14736  45.71324 
 289  74.32832  70.70502  67.26589  60.92536  45.54778 
 290  74.05539  70.44501  67.01865  60.70173  45.37951 
 291  73.77940  70.18333  66.76975  60.47562  45.21172 
 292  73.49966  69.91709  66.51616  60.24533  45.03776 
 293  73.21885  69.65056  66.26236  60.01583  44.86647 
 294  72.93559  69.38084  66.00530  59.78378  44.69228 
 295  72.65122  69.11006  65.74876  59.55082  44.51854 
 296  72.36298  68.83676  65.48817  59.31442  44.34185 
 297  72.07358  68.56092  65.22576  59.07707  44.16447 
 298  71.78091  68.28250  64.96075  58.83706  43.98409 
 299  71.48636  68.00294  64.69466  58.59607  43.80411 
 300  71.19059  67.72075  64.42593  58.35238  43.62224 
 301  70.89217  67.43738  64.15606  58.10766  43.43846 
 302  70.59249  67.15207  63.88505  57.86190  43.25506 
 303  70.29082  66.86554  63.61211  57.61423  43.06971 
 304  69.98714  66.57627  63.33719  57.36549  42.88240 
 305  69.68285  66.28650  63.06108  57.11567  42.69543 
 306  69.37579  65.99470  62.78376  56.86387  42.50765 
 307  69.06808  65.70160  62.50440  56.61095  42.31784 
 308  68.75827  65.40719  62.22459  56.35690  42.12838 
 309  68.44779  65.11221  61.94352  56.10258  41.93805 
 310  68.13589  64.81512  61.66036  55.84622  41.74566 
 311  67.82256  64.51666  61.37671  55.58957  41.55358 
 312  67.50851  64.21838  61.09255  55.33173  41.36182 
 313  67.19375  63.91870  60.80707  55.07359  41.16916 
 314  66.87750  63.61761  60.52107  54.81423  40.97560 
 315  66.56050  63.31587  60.23454  54.55365  40.78112 
 316  66.24274  63.01349  59.94664  54.29365  40.58694 
 317  65.92420  62.71045  59.65820  54.03240  40.39183 
 318  65.60488  62.40673  59.36918  53.76988  40.19701 
 319  65.28476  62.10233  59.07961  53.50795  40.00125 
 320  64.96538  61.79806  58.79031  53.24660  39.80703 
 321  64.64441  61.49309  58.50043  52.98302  39.61060 
 322  64.32418  61.18823  58.20996  52.72096  39.41573 
 323  64.00312  60.88268  57.91891  52.45760  39.21989 
 324  63.68202  60.57722  57.62899  52.19483  39.02435 
 325  63.36087  60.27271  57.33847  51.93169  38.82911 
 326  63.03967  59.96666  57.04735  51.66914  38.63418 
 327  62.71842  59.66154  56.75738  51.40623  38.43956 
 328  62.39872  59.35655  56.46769  51.14391  38.24526 
 329  62.07817  59.05167  56.17739  50.88123  38.04997 
 330  61.75840  58.74776  55.88828  50.61917  37.85631 
 331  61.43940  58.44485  55.60036  50.35872  37.66298 
 332  61.12037  58.14120  55.31184  50.09790  37.46999 
 333  60.80296  57.83857  55.02454  49.83774  37.27734 
 334  60.48553  57.53782  54.73756  49.57923  37.08639 
 335  60.16893  57.23635  54.45089  49.32038  36.89444 
 336  59.85399  56.93681  54.16641  49.06221  36.70422 
 337  59.53990  56.63832  53.88228  48.80574  36.51438 
 338  59.22668  56.34004  53.59851  48.54894  36.32492 
 339  58.91604  56.04462  53.31791  48.29493  36.13724 
 340  58.60546  55.74944  53.03772  48.04165  35.94997 
 341  58.29665  55.45539  52.75794  47.78807  35.76171 
 342  57.98965  55.16339  52.47952  47.53735  35.57668 
 343  57.68449  54.87258  52.20345  47.28742  35.39209 
 344  57.38118  54.58480  51.92976  47.04041  35.20937 
 345  57.07889  54.29733  51.65656  46.79316  35.02571 
 346  56.77940  54.01296  51.38580  46.54782  34.84537 
 347  56.48185  53.72988  51.11653  46.30443  34.66410 
 348  56.18719  53.44904  50.84978  46.06191  34.48478 
 349  55.89454  53.17048  50.58458  45.82248  34.30598 
 350  55.60396  52.89423  50.32097  45.58399  34.12917 
 351  55.31727  52.62129  50.06196  45.34975  33.95585 
 352  55.03181  52.34978  49.80361  45.11541  33.78017 
 353  54.75034  52.08167  49.54796  44.88430  33.60804 
 354  54.47018  51.81506  49.29503  44.65423  33.43651 
 355  54.19410  51.55192  49.04386  44.42747  33.26710 
 356  53.92031  51.29230  48.79652  44.20294  33.09834 
 357  53.65072  51.03430  48.55204  43.98068  32.93327 
 358  53.38445  50.78090  48.31045  43.76186  32.76889 
 359  53.11967  50.52920  48.07078  43.54423  32.60675 
 360  52.86019  50.28220  47.83513  43.33013  32.44688 
 361  52.60323  50.03699  47.60252  43.11844  32.28777 
 362  52.34978  49.79659  47.37299  42.91037  32.13254 
 363  52.10086  49.55906  47.14658  42.70597  31.97812 
 364  51.85557  49.32545  46.92441  42.50412  31.82609 
 365  51.61298  49.09481  46.70439  42.30484  31.67807 
 366  51.37509  48.86819  46.48871  42.10938  31.53110 
 367  51.14196  48.64669  46.27742  41.91778  31.38758 
 368  50.91169  48.42624  46.06843  41.72769  31.24484 
 369  50.68629  48.21307  45.86502  41.54275  31.10756 
 370  50.46583  48.00208  45.66508  41.36182  30.97208 
 371  50.24838  47.79539  45.46757  41.18373  30.83845 
 372  50.03599  47.59307  45.27582  41.00853  30.70798 
 373  49.82771  47.39515  45.08658  40.83871  30.58071 
 374  49.62459  47.20275  44.90323  40.67186  30.45669 
 375  49.42570  47.01276  44.72248  40.50802  30.33447 
 376  49.23211  46.82841  44.54773  40.34972  30.21688 
 377  49.04386  46.64869  44.37680  40.19453  30.10249 
 378  48.85898  46.47365  44.20973  40.04373  29.99016 
 379  48.67957  46.30335  44.04770  39.89737  29.88127 
 380  48.50567  46.13784  43.89077  39.75550  29.77684 
 381  48.33632  45.97717  43.73785  39.61692  29.67474 
 382  48.17157  45.82030  43.58899  39.48164  29.57465 
 383  48.01354  45.66946  43.44537  39.35226  29.47915 
 384  47.86021  45.52472  43.30820  39.22882  29.38860 
 385  47.71163  45.38282  43.17291  39.10754  29.29881 
 386  47.56890  45.24710  43.04416  38.99102  29.21387 
 387  47.43100  45.11652  42.91969  38.87801  29.13108 
 388  47.29799  44.99000  42.80070  38.77112  29.05202 
 389  47.17097  44.86981  42.68606  38.66782  28.97637 
 390  47.04997  44.75489  42.57699  38.56812  28.90433 
 391  46.93400  44.64527  42.47234  38.47467  28.83591 
 392  46.82307  44.53987  42.37216  38.38489  28.76995 
 393  46.71938  44.44097  42.27884  38.30013  28.70871 
 394  46.61974  44.34636  42.18886  38.22041  28.64978 
 395  46.52526  44.25720  42.10463  38.14315  28.59336 
 396  46.43813  44.17465  42.02618  38.07230  28.54190 
 397  46.35515  44.09535  41.94997  38.00395  28.49140 
 398  46.27850  44.02272  41.88198  37.94206  28.44591 
 399  46.20714  43.95452  41.81746  37.88403  28.40282 
 400  46.14109  43.89191  41.75763  37.82988  28.36212 
 401  46.08036  43.83492  41.70372  37.78095  28.32508 
 402  46.02608  43.78356  41.65453  37.73725  28.29187 
 403  45.97717  43.73671  41.61010  37.69748  28.26128 
 404  45.93365  43.69554  41.57042  37.66032  28.23314 
 405  45.89662  43.66005  41.53673  37.62978  28.20904 
 406  45.86284  43.62797  41.50663  37.60186  28.18634 
 407  45.83558  43.60160  41.48132  37.57925  28.16771 
 408  45.81375  43.58096  41.46203  37.56062  28.15209 
 409  45.79847  43.56604  41.44756  37.54730  28.14054 
 410  45.78646  43.55456  41.43670  37.53665  28.13094 
 411  45.78100  43.54997  41.43066  37.53265  28.12561 
 412  45.77991  43.54882  41.42946  37.52999  28.12206 
 413  45.78428  43.55227  41.43308  37.53265  28.12170 
 414  45.79192  43.56030  41.44032  37.53931  28.12330 
 415  45.80611  43.57293  41.45359  37.54996  28.12952 
 416  45.82467  43.59014  41.46927  37.56461  28.13770 
 417  45.84757  43.61192  41.48976  37.58191  28.14818 
 418  45.87592  43.63829  41.51506  37.60452  28.16203 
 419  45.90861  43.66921  41.54395  37.62978  28.17960 
 420  45.94562  43.70469  41.57764  37.66032  28.19929 
 421  45.98695  43.74471  41.61490  37.69350  28.22269 
 422  46.03368  43.78813  41.65693  37.73195  28.24854 
 423  46.08253  43.83492  41.70132  37.77168  28.27543 
 424  46.13675  43.88622  41.74925  37.81402  28.30495 
 425  46.19415  43.94201  41.80191  37.86159  28.33814 
 426  46.25689  44.00114  41.85809  37.91174  28.37411 
 427  46.32278  44.06359  41.91778  37.96577  28.41144 
 428  46.39181  44.12936  41.97976  38.02236  28.45136 
 429  46.46396  44.19842  42.04522  38.08018  28.49281 
 430  46.54138  44.27189  42.11532  38.14446  28.53839 
 431  46.62188  44.34749  42.18886  38.20995  28.58566 
 432  46.70439  44.42634  42.26346  38.27662  28.63302 
 433  46.79102  44.50955  42.34147  38.34840  28.68484 
 434  46.88070  44.59372  42.42287  38.42005  28.73691 
 435  46.97233  44.68221  42.50529  38.49545  28.79080 
 436  47.06804  44.77276  42.59225  38.57460  28.84788 
 437  47.16673  44.86647  42.68138  38.65488  28.90675 
 438  47.26732  44.96221  42.77266  38.73758  28.96619 
 439  47.37193  45.06218  42.86724  38.82267  29.02895 
 440  47.47842  45.16304  42.96394  38.91015  29.09244 
 441  47.58676  45.26699  43.06274  38.99872  29.15785 
 442  47.69696  45.37070  43.16248  39.08964  29.22294 
 443  47.81004  45.47966  43.26431  39.18290  29.29147 
 444  47.92598  45.58947  43.36934  39.27722  29.36086 
 445  48.04269  45.70011  43.47528  39.37258  29.43128 
 446  48.16015  45.81266  43.58211  39.46898  29.50153 
 447  48.28147  45.92712  43.69210  39.56893  29.57397 
 448  48.40248  46.04346  43.80183  39.66737  29.64642 
 449  48.52628  46.16167  43.91469  39.76933  29.72120 
 450  48.65285  46.28067  44.02840  39.87355  29.79732 
 451  48.77909  46.40151  44.14295  39.97624  29.87340 
 452  48.90603  46.52311  44.25833  40.08117  29.94962 
 453  49.03570  46.64654  44.37567  40.18830  30.02849 
 454  49.16605  46.76965  44.49382  40.29392  30.10631 
 455  49.29605  46.89350  44.61166  40.40049  30.18443 
 456  49.42874  47.02021  44.73142  40.51049  30.26516 
 457  49.56107  47.14552  44.85086  40.61773  30.34386 
 458  49.69407  47.27261  44.97221  40.72714  30.42417 
 459  49.82771  47.40042  45.09324  40.83748  30.50492 
 460  49.96299  47.52894  45.21615  40.94752  30.58627 
 461  50.09690  47.65711  45.33762  41.05849  30.66692 
 462  50.23246  47.78493  45.45987  41.16916  30.74817 
 463  50.36765  47.91346  45.58179  41.27953  30.82888 
 464  50.50248  48.04165  45.70448  41.38961  30.90922 
 465  50.63694  48.17053  45.82576  41.49940  30.98903 
 466  50.77204  48.29907  45.94780  41.61010  31.06960 
 467  50.90776  48.42727  46.07169  41.72169  31.15125 
 468  51.04214  48.55615  46.19307  41.83181  31.23124 
 469  51.17617  48.68367  46.31414  41.94163  31.31118 
 470  51.31082  48.81189  46.43705  42.05116  31.39204 
 471  51.44317  48.93771  46.55642  42.15922  31.46935 
 472  51.57713  49.06424  46.67654  42.26819  31.54901 
 473  51.70977  49.19044  46.79637  42.37688  31.62752 
 474  51.84207  49.31633  46.91588  42.48412  31.70647 
 475  51.97307  49.44189  47.03510  42.59225  31.78522 
 476  52.10278  49.56511  47.15294  42.69777  31.86063 
 477  52.23217  49.68702  47.26944  42.80304  31.93744 
 478  52.36029  49.80964  47.38460  42.90804  32.01250 
 479  52.48809  49.93095  47.50053  43.01163  32.08738 
 480  52.61369  50.05098  47.61407  43.11380  32.16209 
 481  52.73898  50.16971  47.72735  43.21574  32.23507 
 482  52.86398  50.28817  47.84036  43.31743  32.30944 
 483  52.98585  50.40437  47.94997  43.41659  32.38055 
 484  53.10650  50.51831  48.05830  43.51437  32.44996 
 485  53.22688  50.63299  48.16742  43.61307  32.52230 
 486  53.34510  50.74545  48.27422  43.70927  32.59141 
 487  53.46214  50.85666  48.37975  43.80411  32.66037 
 488  53.57705  50.96568  48.48402  43.89761  32.72766 
 489  53.69078  51.07347  48.58601  43.98977  32.79329 
 490  53.80242  51.18007  48.68778  44.08174  32.86031 
 491  53.91196  51.28450  48.78627  44.17012  32.92416 
 492  54.02037  51.38774  48.88456  44.25946  32.98788 
 493  54.12763  51.48883  48.98061  44.34636  33.04996 
 494  54.23191  51.58876  49.07545  44.43197  33.11193 
 495  54.33415  51.68559  49.16808  44.51404  33.17228 
 496  54.43436  51.78127  49.25850  44.59597  33.23101 
 497  54.53256  51.87389  49.34673  44.67662  33.28814 
 498  54.62875  51.96634  49.43379  44.75489  33.34517 
 499  54.72385  52.05670  49.52070  44.83302  33.40360 
 500  54.81697  52.14403  49.60443  44.90880  33.45893 
 501  54.90537  52.22930  49.68501  44.98111  33.51119 
 502  54.99454  52.31348  49.76445  45.05441  33.56486 
 503  55.07994  52.39466  49.84175  45.12427  33.61547 
 504  55.16249  52.47285  49.91693  45.19181  33.66601 
 505  55.24400  52.55188  49.99200  45.25925  33.71646 
 506  55.32269  52.62604  50.06196  45.32328  33.76389 
 507  55.39946  52.69915  50.13182  45.38722  33.81124 
 508  55.47252  52.76931  50.19860  45.44777  33.85558 
 509  55.54457  52.83749  50.26430  45.50604  33.89985 
 510  55.61295  52.90274  50.32594  45.56314  33.94112 
 511  55.68034  52.96697  50.38750  45.61798  33.98235 
 512  55.74406  53.02829  50.44601  45.67056  34.02058 
 513  55.80592  53.08767  50.50248  45.72198  34.05877 
 514  55.86591  53.14415  50.55591  45.77117  34.09546 
 515  55.92316  53.19868  50.60830  45.81921  34.13063 
 516  55.97767  53.25035  50.65767  45.86393  34.16431 
 517  56.02856  53.29916  50.70404  45.90643  34.19503 
 518  56.07852  53.34698  50.74939  45.94671  34.22572 
 519  56.12575  53.39194  50.79271  45.98587  34.25493 
 520  56.17028  53.43501  50.83306  46.02282  34.28119 
 521  56.21210  53.47429  50.87042  46.05649  34.30598 
 522  56.25034  53.51075  50.90580  46.08796  34.32783 
 523  56.28765  53.54624  50.93918  46.11832  34.35113 
 524  56.32228  53.57891  50.97058  46.14651  34.37150 
 525  56.35246  53.60783  50.99804  46.17142  34.38750 
 526  56.38173  53.63581  51.02451  46.19524  34.40494 
 527  56.40922  53.66191  51.04900  46.21796  34.42093 
 528  56.43315  53.68426  51.07054  46.23743  34.43399 
 529  56.45441  53.70475  51.09011  46.25473  34.44561 
 530  56.47300  53.72243  51.10675  46.26878  34.45577 
 531  56.49071  53.73919  51.12240  46.28390  34.46593 
 532  56.50398  53.75128  51.13414  46.29363  34.47173 
 533  56.51460  53.76151  51.14391  46.30227  34.47608 
 534  56.52345  53.76988  51.15076  46.30767  34.48043 
 535  56.52876  53.77453  51.15564  46.31198  34.48188 
 536  56.53229  53.77825  51.15858  46.31414  34.48188 
 537  56.53406  53.77918  51.16053  46.31522  34.48043 
 538  56.53141  53.77732  51.15760  46.31306  34.47753 
 539  56.52699  53.77267  51.15369  46.30875  34.47173 
 540  56.52079  53.76616  51.14783  46.30227  34.46593 
 541  56.51106  53.75686  51.13805  46.29363  34.45867 
 542  56.49956  53.74570  51.12729  46.28390  34.44851 
 543  56.48451  53.73174  51.11360  46.27094  34.43835 
 544  56.46769  53.71592  51.09795  46.25689  34.42528 
 545  56.44820  53.69637  51.08033  46.23959  34.41220 
 546  56.42606  53.67588  51.06075  46.22121  34.39622 
 547  56.40124  53.65259  51.03724  46.20065  34.38023 
 548  56.37464  53.62649  51.01274  46.17792  34.36131 
 549  56.34536  53.59851  50.98627  46.15409  34.34240 
 550  56.31341  53.56865  50.95782  46.12700  34.32201 
 551  56.27966  53.53597  50.92740  46.09989  34.30160 
 552  56.24322  53.50140  50.89401  46.06951  34.27827 
 553  56.20409  53.46400  50.85863  46.03803  34.25347 
 554  56.16315  53.42471  50.82125  46.00326  34.22864 
 555  56.11951  53.38352  50.78189  45.96738  34.20088 
 556  56.07317  53.33948  50.73953  45.92929  34.17309 
 557  56.02499  53.29353  50.69616  45.89008  34.14381 
 558  55.97410  53.24566  50.64978  45.84866  34.11158 
 559  55.92048  53.19492  50.60237  45.80502  34.07932 
 560  55.86591  53.14320  50.55294  45.76134  34.04702 
 561  55.80770  53.08767  50.49950  45.71324  34.01029 
 562  55.74854  53.03112  50.44700  45.66508  33.97499 
 563  55.68752  52.97358  50.39147  45.61469  33.93818 
 564  55.62464  52.91314  50.33488  45.56314  33.89985 
 565  55.55898  52.85073  50.27524  45.50934  33.86000 
 566  55.49144  52.78636  50.21454  45.45437  33.82011 
 567  55.42202  52.72096  50.15177  45.39824  33.77869 
 568  55.35070  52.65264  50.08693  45.33983  33.73574 
 569  55.27658  52.58232  50.02100  45.28024  33.68976 
 570  55.20145  52.51190  49.95298  45.21836  33.64521 
 571  55.12440  52.43758  49.88286  45.15529  33.59762 
 572  55.04544  52.36220  49.81165  45.08991  33.54996 
 573  54.96453  52.28576  49.73832  45.02444  33.50075 
 574  54.88260  52.20824  49.66387  44.95776  33.45146 
 575  54.79872  52.12773  49.58831  44.88875  33.40060 
 576  54.71289  52.04709  49.51161  44.81964  33.34816 
 577  54.62600  51.96345  49.43177  44.74707  33.29414 
 578  54.53714  51.87870  49.35180  44.67438  33.24004 
 579  54.44630  51.79382  49.26966  44.60045  33.18584 
 580  54.35531  51.70687  49.18740  44.52640  33.13155 
 581  54.26141  51.61686  49.10194  44.44884  33.07265 
 582  54.16641  51.52669  49.01632  44.37116  33.01363 
 583  54.07032  51.43540  48.92954  44.29221  32.95603 
 584  53.97314  51.34296  48.84158  44.21312  32.89681 
 585  53.87486  51.24939  48.75244  44.13276  32.83596 
 586  53.77546  51.15467  48.66210  44.04997  32.77499 
 587  53.67495  51.05879  48.57159  43.96817  32.71391 
 588  53.57238  50.96175  48.47886  43.88394  32.64965 
 589  53.46868  50.86354  48.38491  43.79840  32.58681 
 590  53.36478  50.76318  48.28975  43.71270  32.52230 
 591  53.25974  50.66360  48.19543  43.62683  32.45766 
 592  53.15355  50.56283  48.09886  43.53963  32.39136 
 593  53.04620  50.46088  48.00208  43.45112  32.32646 
 594  52.93770  50.35673  47.90303  43.36127  32.25678 
 595  52.82802  50.25237  47.80376  43.27124  32.18851 
 596  52.71907  50.14878  47.70430  43.18217  32.12164 
 597  52.60893  50.04398  47.60462  43.09060  32.05464 
 598  52.49952  49.93996  47.50579  43.00232  31.98906 
 599  52.38893  49.83473  47.40570  42.91037  31.92021 
 600  52.27619  49.72826  47.30433  42.81822  31.85122 
 601  52.16417  49.62056  47.20169  42.72587  31.78050 
 602  52.05094  49.51363  47.09989  42.63332  31.71120 
 603  51.93746  49.40546  46.99681  42.53939  31.64016 
 604  51.82470  49.29807  46.89456  42.44762  31.57166 
 605  51.71074  49.18943  46.79102  42.35328  31.50143 
 606  51.59748  49.08157  46.68833  42.26109  31.43199 
 607  51.48204  48.97142  46.58326  42.16397  31.35857 
 608  51.36828  48.86308  46.48010  42.07137  31.28850 
 609  51.25427  48.75449  46.37780  41.97738  31.21922 
 610  51.14000  48.64566  46.27310  41.88317  31.14820 
 611  51.02549  48.53761  46.17034  41.78995  31.07797 
 612  50.91169  48.42933  46.06734  41.69652  31.00839 
 613  50.79764  48.31977  45.96303  41.60168  30.93719 
 614  50.68431  48.21203  45.86066  41.50904  30.86762 
 615  50.57074  48.10405  45.75806  41.41618  30.79757 
 616  50.45691  47.99583  45.65523  41.32312  30.72800 
 617  50.34580  47.88945  45.55436  41.23106  30.66023 
 618  50.23346  47.78284  45.45217  41.14000  30.59167 
 619  50.12085  47.67599  45.35085  41.04753  30.52245 
 620  50.01100  47.57205  45.25152  40.95729  30.45603 
 621  49.89990  47.46578  45.15086  40.86563  30.38750 
 622  49.79056  47.36138  45.05108  40.77622  30.32062 
 623  49.68199  47.25886  44.95331  40.68784  30.25525 
 624  49.57419  47.15612  44.85532  40.59926  30.18907 
 625  49.46615  47.05316  44.75824  40.51049  30.12308 
 626  49.35990  46.95210  44.66206  40.42400  30.05844 
 627  49.25444  46.85296  44.56680  40.33733  29.99533 
 628  49.15079  46.75361  44.47247  40.25295  29.93242 
 629  49.04794  46.65619  44.38018  40.16964  29.87072 
 630  48.94589  46.55856  44.28770  40.08491  29.80805 
 631  48.84465  46.46181  44.19616  40.00250  29.74660 
 632  48.74526  46.36809  44.10669  39.92117  29.68771 
 633  48.64669  46.27419  44.01704  39.84093  29.62752 
 634  48.54998  46.18225  43.93063  39.76179  29.56975 
 635  48.45513  46.09230  43.84518  39.68501  29.51322 
 636  48.36114  46.00217  43.75957  39.60808  29.45539 
 637  48.26904  45.91514  43.67608  39.53226  29.39983 
 638  48.17780  45.82903  43.59358  39.45884  29.34553 
 639  48.08846  45.74385  43.51322  39.38528  29.29215 
 640  48.00208  45.66071  43.43501  39.31539  29.23987 
 641  47.91660  45.57960  43.35781  39.24538  29.18852 
 642  47.83200  45.49945  43.28164  39.17525  29.13692 
 643  47.74934  45.42136  43.20764  39.10882  29.08745 
 644  47.67075  45.34644  43.13583  39.04485  29.04015 
 645  47.59201  45.27140  43.06507  38.98077  28.99241 
 646  47.51526  45.19956  42.99535  38.91786  28.94564 
 647  47.44260  45.12981  42.93018  38.85872  28.90225 
 648  47.36982  45.05996  42.86374  38.79819  28.85689 
 649  47.30011  44.99445  42.80070  38.74145  28.81493 
 650  47.23346  44.93106  42.73991  38.68721  28.77377 
 651  47.16779  44.86870  42.68138  38.63289  28.73308 
 652  47.10414  44.80737  42.62394  38.58109  28.69320 
 653  47.04466  44.75042  42.56877  38.53180  28.65659 
 654  46.98617  44.69452  42.51588  38.48246  28.61940 
 655  46.92867  44.64079  42.46410  38.43566  28.58286 
 656  46.87643  44.59036  42.41580  38.39271  28.54961 
 657  46.82521  44.54211  42.36980  38.34970  28.51719 
 658  46.77499  44.49382  42.32375  38.30796  28.48403 
 659  46.73008  44.45110  42.28238  38.27009  28.45576 
 660  46.68619  44.40946  42.24334  38.23480  28.42798 
 661  46.64440  44.37003  42.20545  38.20079  28.40123 
 662  46.60579  44.33283  42.17108  38.16805  28.37640 
 663  46.56930  44.29786  42.13787  38.13791  28.35242 
 664  46.53601  44.26624  42.10701  38.11037  28.33037 
 665  46.50484  44.23573  42.07850  38.08281  28.30936 
 666  46.47580  44.20860  42.05235  38.05917  28.29028 
 667  46.44997  44.18371  42.02856  38.03814  28.27331 
 668  46.42521  44.16107  42.00595  38.01710  28.25597 
 669  46.40582  44.14182  41.98809  38.00000  28.24341 
 670  46.38750  44.12369  41.97023  37.98421  28.23030 
 671  46.37241  44.10896  41.95712  37.97236  28.22074 
 672  46.35839  44.09649  41.94401  37.96051  28.21064 
 673  46.34868  44.08628  41.93567  37.95260  28.20390 
 674  46.34005  44.07948  41.92851  37.94601  28.19823 
 675  46.33573  44.07494  41.92374  37.94206  28.19468 
 676  46.33249  44.07153  41.92136  37.93943  28.19202 
 677  46.33249  44.07153  41.92136  37.93943  28.19149 
 678  46.33573  44.07494  41.92374  37.94206  28.19326 
 679  46.34113  44.07948  41.92851  37.94601  28.19592 
 680  46.34976  44.08855  41.93686  37.95392  28.20195 
 681  46.36054  44.09875  41.94640  37.96314  28.20904 
 682  46.37349  44.11123  41.95831  37.97367  28.21702 
 683  46.39073  44.12709  41.97499  37.98816  28.22853 
 684  46.40905  44.14521  41.99047  38.00395  28.23951 
 685  46.42952  44.16447  42.00952  38.01973  28.25155 
 686  46.45213  44.18597  42.03094  38.03945  28.26570 
 687  46.47903  44.21199  42.05473  38.06179  28.28356 
 688  46.50806  44.23912  42.08088  38.08543  28.30088 
 689  46.53923  44.26850  42.10938  38.11168  28.32049 
 690  46.57252  44.30011  42.14024  38.13922  28.34113 
 691  46.60794  44.33509  42.17226  38.16936  28.36389 
 692  46.64654  44.37116  42.20782  38.20079  28.38767 
 693  46.68726  44.41058  42.24453  38.23480  28.41355 
 694  46.73008  44.45110  42.28357  38.27009  28.43923 
 695  46.77606  44.49495  42.32611  38.30796  28.46840 
 696  46.82414  44.54099  42.36980  38.34840  28.49842 
 697  46.87430  44.58924  42.41462  38.39010  28.52946 
 698  46.92760  44.63967  42.46292  38.43306  28.56151 
 699  46.98191  44.69116  42.51235  38.47726  28.59441 
 700  47.03934  44.74595  42.56407  38.52402  28.62970 
 701  47.09777  44.80178  42.61807  38.57331  28.66583 
 702  47.15931  44.86090  42.67318  38.62383  28.70296 
 703  47.22288  44.92104  42.73055  38.67558  28.74109 
 704  47.28847  44.98333  42.79018  38.72854  28.78020 
 705  47.35504  45.04664  42.84974  38.78273  28.81926 
 706  47.42362  45.11208  42.91270  38.83941  28.86053 
 707  47.49421  45.17964  42.97674  38.89730  28.90190 
 708  47.56890  45.24931  43.04300  38.95767  28.94685 
 709  47.64242  45.31997  43.11032  39.01794  28.99052 
 710  47.72002  45.39383  43.17986  39.08068  29.03670 
 711  47.79749  45.46757  43.25043  39.14460  29.08298 
 712  47.87797  45.54338  43.32320  39.20969  29.13057 
 713  47.96040  45.62236  43.39700  39.27722  29.18065 
 714  48.04269  45.70011  43.47183  39.34463  29.22841 
 715  48.12692  45.78100  43.54768  39.41320  29.27883 
 716  48.21307  45.86284  43.62568  39.48417  29.33070 
 717  48.30114  45.94562  43.70469  39.55502  29.38282 
 718  48.38905  46.02934  43.78470  39.62701  29.43501 
 719  48.47886  46.11507  43.86684  39.70013  29.48898 
 720  48.56954  46.20065  43.94770  39.77436  29.54183 
 721  48.66313  46.29039  44.03294  39.85097  29.59899 
 722  48.75654  46.37888  44.11689  39.92618  29.65384 
 723  48.85079  46.46827  44.20181  40.00375  29.71044 
 724  48.94589  46.55964  44.28883  40.08117  29.76760 
 725  49.04284  46.65083  44.37567  40.15968  29.82516 
 726  49.14061  46.74398  44.46459  40.24053  29.88445 
 727  49.23820  46.83695  44.55222  40.32121  29.94311 
 728  49.33761  46.93080  44.64191  40.40173  30.00233 
 729  49.43683  47.02659  44.73254  40.48333  30.06210 
 730  49.53685  47.12112  44.82187  40.56353  30.12142 
 731  49.63869  47.21758  44.91436  40.64849  30.18394 
 732  49.74033  47.31385  45.00666  40.73082  30.24450 
 733  49.84275  47.41202  45.09989  40.81544  30.30726 
 734  49.94597  47.51000  45.19292  40.89988  30.36956 
 735  50.04898  47.60882  45.28686  40.98414  30.43255 
 736  50.15177  47.70639  45.37951  41.06824  30.49410 
 737  50.25634  47.80585  45.47417  41.15337  30.55765 
 738  50.35971  47.90407  45.56753  41.23833  30.61976 
 739  50.46385  48.00312  45.66180  41.32433  30.68289 
 740  50.56778  48.10197  45.75587  41.40894  30.74573 
 741  50.67248  48.20166  45.85085  41.49458  30.80958 
 742  50.77795  48.30217  45.94562  41.58125  30.87329 
 743  50.88222  48.40145  46.04020  41.66653  30.93687 
 744  50.98725  48.50155  46.13675  41.75404  31.00161 
 745  51.09207  48.60144  46.23094  41.83898  31.06509 
 746  51.19570  48.69908  46.32494  41.92374  31.12748 
 747  51.29912  48.79754  46.41767  42.00833  31.18974 
 748  51.40331  48.89683  46.51236  42.09394  31.25348 
 749  51.50728  48.99592  46.60686  42.17938  31.31709 
 750  51.61008  49.09379  46.70011  42.26464  31.37977 
 751  51.71363  49.19248  46.79316  42.34855  31.44265 
 752  51.81602  49.28996  46.88710  42.43348  31.50571 
 753  51.91821  49.38725  46.97872  42.51706  31.56786 
 754  52.01923  49.48333  47.07016  42.59930  31.62910 
 755  52.12101  49.58024  47.16249  42.68372  31.69227 
 756  52.21973  49.67495  47.25251  42.76447  31.75059 
 757  52.32017  49.77047  47.34343  42.84740  31.81352 
 758  52.41851  49.86382  47.43311  42.92785  31.87319 
 759  52.51762  49.95798  47.52262  43.00930  31.93274 
 760  52.61464  50.04998  47.60987  43.08828  31.99219 
 761  52.71053  50.14180  47.69696  43.16712  32.04996 
 762  52.80720  50.23346  47.78493  43.24697  32.10919 
 763  52.90180  50.32296  47.87066  43.32436  32.16675 
 764  52.99528  50.41230  47.95519  43.40161  32.22422 
 765  53.08767  50.50050  48.03957  43.47758  32.28003 
 766  53.17989  50.58854  48.12276  43.55342  32.33574 
 767  53.27101  50.67445  48.20477  43.62683  32.39136 
 768  53.36010  50.76022  48.28561  43.70012  32.44534 
 769  53.44904  50.84388  48.36631  43.77328  32.49923 
 770  53.53597  50.92740  48.44481  43.84404  32.55150 
 771  53.62183  51.00882  48.52216  43.91469  32.60368 
 772  53.70661  51.08914  48.59938  43.98409  32.65425 
 773  53.78941  51.16835  48.67443  44.05224  32.70474 
 774  53.87114  51.24646  48.74833  44.11916  32.75363 
 775  53.95276  51.32349  48.82213  44.18597  32.80244 
 776  54.03147  51.39845  48.89274  44.24929  32.84814 
 777  54.10915  51.47232  48.96325  44.31253  32.89529 
 778  54.18671  51.54610  49.03366  44.37680  32.94237 
 779  54.26048  51.61686  49.09990  44.43647  32.98636 
 780  54.33415  51.68559  49.16605  44.49607  33.03029 
 781  54.40588  51.75423  49.23109  44.55558  33.07265 
 782  54.47569  51.82084  49.29401  44.61278  33.11344 
 783  54.54448  51.88641  49.35686  44.66878  33.15569 
 784  54.61135  51.94998  49.41761  44.72359  33.19488 
 785  54.67632  52.01154  49.47525  44.77611  33.23251 
 786  54.74030  52.07207  49.53282  44.82745  33.27161 
 787  54.80146  52.13061  49.58831  44.87761  33.30616 
 788  54.86073  52.18716  49.64172  44.92550  33.34216 
 789  54.91903  52.24175  49.69407  44.97332  33.37514 
 790  54.97545  52.29627  49.74636  45.02000  33.40958 
 791  55.02999  52.34787  49.79558  45.06440  33.44249 
 792  55.08266  52.39752  49.84275  45.10654  33.47387 
 793  55.13347  52.44616  49.88787  45.14754  33.50373 
 794  55.18152  52.49095  49.93195  45.18628  33.53058 
 795  55.22771  52.53570  49.97299  45.22389  33.55741 
 796  55.27386  52.57946  50.01500  45.26257  33.58571 
 797  55.31546  52.61939  50.05297  45.29680  33.61101 
 798  55.35612  52.65738  50.08892  45.32880  33.63480 
 799  55.39495  52.69440  50.12484  45.36078  33.65858 
 800  55.43194  52.72950  50.15775  45.39163  33.68085 
 801  55.46621  52.76268  50.18864  45.41916  33.70163 
 802  55.49775  52.79205  50.21753  45.44557  33.71943 
 803  55.52837  52.82140  50.24540  45.47087  33.74018 
 804  55.55628  52.84789  50.27126  45.49395  33.75648 
 805  55.58327  52.87438  50.29612  45.51703  33.77425 
 806  55.60755  52.89707  50.31700  45.53680  33.78905 
 807  55.62823  52.91692  50.33686  45.55436  33.80237 
 808  55.64800  52.93487  50.35375  45.56973  33.81420 
 809  55.66507  52.95186  50.37062  45.58509  33.82602 
 810  55.68034  52.96603  50.38353  45.59715  33.83637 
 811  55.69291  52.97830  50.39544  45.60702  33.84376 
 812  55.70368  52.98868  50.40536  45.61688  33.85115 
 813  55.71176  52.99623  50.41230  45.62346  33.85558 
 814  55.71894  53.00283  50.41924  45.63004  33.86148 
 815  55.72253  53.00755  50.42321  45.63332  33.86444 
 816  55.72432  53.00849  50.42420  45.63442  33.86591 
 817  55.72343  53.00755  50.42321  45.63332  33.86591 
 818  55.72163  53.00566  50.42221  45.63332  33.86591 
 819  55.71625  53.00095  50.41825  45.62894  33.86296 
 820  55.70996  52.99528  50.41230  45.62456  33.86000 
 821  55.70009  52.98585  50.40337  45.61579  33.85410 
 822  55.68842  52.97546  50.39345  45.60702  33.84819 
 823  55.67495  52.96225  50.38055  45.59605  33.83933 
 824  55.65788  52.94526  50.36467  45.58179  33.82898 
 825  55.63992  52.92825  50.34879  45.56753  33.81863 
 826  55.61834  52.90841  50.32991  45.54997  33.80532 
 827  55.59496  52.88572  50.30805  45.53021  33.78905 
 828  55.56977  52.86208  50.28519  45.50934  33.77573 
 829  55.54187  52.83559  50.26032  45.48626  33.75796 
 830  55.51216  52.80720  50.23346  45.46207  33.73870 
 831  55.48063  52.77689  50.20458  45.43567  33.71943 
 832  55.44547  52.74372  50.17270  45.40705  33.69867 
 833  55.40939  52.70958  50.13980  45.37731  33.67640 
 834  55.36967  52.67162  50.10389  45.34534  33.65115 
 835  55.32902  52.63269  50.06696  45.31115  33.62588 
 836  55.28472  52.58992  50.02599  45.27472  33.59762 
 837  55.23857  52.54617  49.98500  45.23715  33.56933 
 838  55.19058  52.50048  49.94097  45.19735  33.53804 
 839  55.13892  52.45188  49.89389  45.15418  33.50522 
 840  55.08630  52.40134  49.84676  45.11097  33.47238 
 841  55.03181  52.34883  49.79659  45.06551  33.43800 
 842  54.97363  52.29436  49.74435  45.01777  33.40210 
 843  54.91448  52.23696  49.69004  44.96888  33.36465 
 844  54.85162  52.17758  49.63265  44.91659  33.32566 
 845  54.78777  52.11622  49.57520  44.86424  33.28513 
 846  54.72111  52.05382  49.51566  44.80960  33.24455 
 847  54.65345  51.98942  49.45402  44.75377  33.20391 
 848  54.58297  51.92205  49.39028  44.69676  33.16022 
 849  54.50963  51.85171  49.32342  44.63519  33.11495 
 850  54.43528  51.78127  49.25647  44.57466  33.06962 
 851  54.35807  51.70783  49.18638  44.51179  33.02272 
 852  54.27799  51.63235  49.11415  44.44660  32.97423 
 853  54.19687  51.55482  49.03978  44.37905  32.92567 
 854  54.11285  51.47427  48.96427  44.31027  32.87400 
 855  54.02592  51.39164  48.88558  44.23912  32.82072 
 856  53.93885  51.30887  48.80676  44.16786  32.76889 
 857  53.84793  51.22304  48.72474  44.09422  32.71238 
 858  53.75500  51.13414  48.64052  44.01818  32.65578 
 859  53.66097  51.04410  48.55513  43.94087  32.59908 
 860  53.56491  50.95292  48.46855  43.86229  32.54228 
 861  53.46588  50.85961  48.37872  43.78128  32.48230 
 862  53.36572  50.76416  48.28768  43.69897  32.42067 
 863  53.26256  50.66656  48.19543  43.61536  32.35892 
 864  53.15826  50.56679  48.10094  43.53045  32.29551 
 865  53.04998  50.46385  48.00312  43.44077  32.22887 
 866  52.94431  50.36268  47.90720  43.35435  32.16675 
 867  52.83370  50.25734  47.80690  43.26431  32.09985 
 868  52.72096  50.15177  47.70639  43.17291  32.03280 
 869  52.60799  50.04298  47.60252  43.08016  31.96404 
 870  52.49190  49.93296  47.49842  42.98488  31.89357 
 871  52.37461  49.82168  47.39198  42.88939  31.82295 
 872  52.25515  49.70815  47.28425  42.79252  31.75059 
 873  52.13444  49.59234  47.17521  42.69309  31.67649 
 874  52.01154  49.47626  47.06379  42.59225  31.60316 
 875  51.88641  49.35788  46.95104  42.49000  31.52745 
 876  51.76002  49.23718  46.83588  42.38632  31.45012 
 877  51.63332  49.11721  46.72258  42.28357  31.37467 
 878  51.50340  48.99286  46.60472  42.17701  31.29489 
 879  51.37315  48.86921  46.48656  42.07018  31.21586 
 880  51.24061  48.74320  46.36701  41.96189  31.13631 
 881  51.10675  48.61584  46.24500  41.85212  31.05479 
 882  50.97058  48.48711  46.12266  41.74087  30.97241 
 883  50.83503  48.35701  46.00000  41.63052  30.89061 
 884  50.69616  48.22551  45.87374  41.51626  30.80568 
 885  50.55591  48.09158  45.74713  41.40048  30.71986 
 886  50.41528  47.95727  45.61908  41.28559  30.63446 
 887  50.27226  47.82154  45.48956  41.16795  30.54701 
 888  50.12883  47.68542  45.36078  41.05119  30.46096 
 889  49.98199  47.54577  45.22720  40.93043  30.37021 
 890  49.83573  47.40675  45.09546  40.81054  30.28102 
 891  49.68903  47.26627  44.96221  40.69029  30.19189 
 892  49.53988  47.12537  44.82745  40.56846  30.10183 
 893  49.38927  46.98191  44.69116  40.44503  30.00933 
 894  49.23921  46.83908  44.55558  40.32245  29.91822 
 895  49.08666  46.69368  44.41621  40.19701  29.82465 
 896  48.93363  46.54782  44.27753  40.07119  29.73096 
 897  48.77807  46.40043  44.13729  39.94371  29.63613 
 898  48.62407  46.25365  43.99773  39.81708  29.54251 
 899  48.46751  46.10531  43.85659  39.68879  29.44741 
 900  48.31045  45.95541  43.71384  39.56008  29.35115 
 901  48.15288  45.80611  43.57178  39.43095  29.25577 
 902  47.99479  45.65414  43.42810  39.30140  29.15905 
 903  47.83304  45.50165  43.28164  39.16887  29.05942 
 904  47.67389  45.34975  43.13815  39.03844  28.96342 
 905  47.51316  45.19624  42.99186  38.90630  28.86468 
 906  47.35082  45.04220  42.84507  38.77242  28.76543 
 907  47.18898  44.88764  42.69894  38.64065  28.66723 
 908  47.02765  44.73366  42.55232  38.50844  28.56991 
 909  46.86363  44.57914  42.40519  38.37447  28.47086 
 910  46.69904  44.42184  42.25518  38.24003  28.37005 
 911  46.53493  44.26624  42.10701  38.10512  28.27013 
 912  46.37025  44.10896  41.95712  37.96972  28.16949 
 913  46.20173  43.94883  41.80431  37.82988  28.06439 
 914  46.03694  43.79155  41.65573  37.69616  27.96534 
 915  45.87047  43.63256  41.50422  37.55928  27.86306 
 916  45.70448  43.47528  41.35456  37.42326  27.76257 
 917  45.53680  43.31628  41.20316  37.28539  27.66026 
 918  45.37070  43.15785  41.05241  37.14970  27.55975 
 919  45.20398  42.99884  40.90110  37.01351  27.45851 
 920  45.03665  42.83923  40.74923  36.87547  27.35653 
 921  44.86981  42.68138  40.59926  36.73962  27.25637 
 922  44.70235  42.52176  40.44750  36.60191  27.15401 
 923  44.53426  42.36272  40.29516  36.46505  27.05199 
 924  44.36665  42.20308  40.14349  36.32767  26.95051 
 925  44.20068  42.04522  39.99375  36.19254  26.85088 
 926  44.03294  41.88556  39.84219  36.05413  26.74883 
 927  43.86684  41.72769  39.69131  35.91796  26.64845 
 928  43.70126  41.56922  39.54112  35.78268  26.54826 
 929  43.53389  41.41135  39.39035  35.64688  26.44712 
 930  43.36934  41.25409  39.24156  35.51056  26.34768 
 931  43.20301  41.09623  39.09092  35.37513  26.24690 
 932  43.03836  40.93898  38.94226  35.24060  26.14785 
 933  42.87423  40.78358  38.79304  35.10698  26.04880 
 934  42.71066  40.62757  38.64583  34.97285  25.95014 
 935  42.54644  40.47221  38.49805  34.83820  25.85130 
 936  42.38396  40.31749  38.35101  34.70591  25.75422 
 937  42.22203  40.16341  38.20340  34.57311  25.65560 
 938  42.06067  40.01000  38.05785  34.44125  25.55856 
 939  41.90107  39.85725  37.91306  34.31035  25.46291 
 940  41.74087  39.70516  37.76904  34.18040  25.36572 
 941  41.58125  39.55376  37.62446  34.04996  25.26994 
 942  41.42342  39.40305  37.48199  33.92049  25.17419 
 943  41.26742  39.25557  37.34033  33.79349  25.08107 
 944  41.11204  39.10754  37.20081  33.66601  24.98780 
 945  40.95729  38.96024  37.06076  33.53953  24.89438 
 946  40.80441  38.81495  36.92154  33.41407  24.80242 
 947  40.65095  38.66911  36.78451  33.28964  24.70992 
 948  40.49815  38.52402  36.64560  33.16323  24.61585 
 949  40.34848  38.38229  36.51027  33.04088  24.52591 
 950  40.20074  38.24003  36.37582  32.91960  24.43542 
 951  40.05371  38.09987  36.24224  32.79939  24.34646 
 952  39.90739  37.96182  36.11094  32.68027  24.25840 
 953  39.76305  37.82460  35.97916  32.56225  24.17002 
 954  39.62070  37.68819  35.85108  32.44380  24.08277 
 955  39.47784  37.55263  35.72114  32.32801  23.99521 
 956  39.33701  37.41925  35.59354  32.21180  23.90878 
 957  39.19949  37.28807  35.46970  32.09829  23.82499 
 958  39.06149  37.15643  35.34402  31.98593  23.73942 
 959  38.92814  37.02972  35.22357  31.87632  23.65798 
 960  38.79433  36.90258  35.10271  31.76633  23.57647 
 961  38.66264  36.77635  34.98285  31.65754  23.49447 
 962  38.53310  36.65379  34.86546  31.55075  23.41517 
 963  38.40573  36.53218  34.74910  31.44599  23.33710 
 964  38.27924  36.41154  34.63524  31.34294  23.26048 
 965  38.15495  36.29325  34.52246  31.24020  23.18340 
 966  38.03288  36.17734  34.41220  31.14033  23.10909 
 967  37.91174  36.06245  34.30306  31.04078  23.03454 
 968  37.79286  35.94857  34.19503  30.94301  22.96127 
 969  37.67758  35.83853  34.08959  30.84818  22.89083 
 970  37.56328  35.73094  33.98676  30.75500  22.82170 
 971  37.45130  35.62303  33.88510  30.66219  22.75236 
 972  37.34033  35.51760  33.78461  30.57123  22.68414 
 973  37.23170  35.41468  33.68531  30.48196  22.61725 
 974  37.12681  35.31430  33.59018  30.39572  22.55349 
 975  37.02296  35.21647  33.49776  30.31122  22.49089 
 976  36.92154  35.11980  33.40509  30.22846  22.42989 
 977  36.82255  35.02571  33.31666  30.14764  22.37007 
 978  36.72601  34.93279  33.22800  30.06726  22.30986 
 979  36.63195  34.84394  33.14363  29.99133  22.25444 
 980  36.53902  34.75629  33.06055  29.91588  22.19887 
 981  36.44997  34.67131  32.97878  29.84242  22.14453 
 982  36.36207  34.58757  32.89985  29.77062  22.09163 
 983  36.27809  34.50797  32.82377  29.70219  22.04178 
 984  36.19530  34.42819  32.74752  29.63427  21.99159 
 985  36.11509  34.35258  32.67721  29.56958  21.94470 
 986  36.03748  34.27827  32.60521  29.50559  21.89749 
 987  35.96109  34.20672  32.53767  29.44350  21.85154 
 988  35.88872  34.13795  32.47153  29.38469  21.80894 
 989  35.81899  34.07051  32.40833  29.32780  21.76764 
 990  35.75052  34.00735  32.34811  29.27303  21.72786 
 991  35.68613  33.94555  32.28932  29.22003  21.68940 
 992  35.62303  33.88510  32.23197  29.16916  21.65248 
 993  35.56121  33.82750  32.17763  29.11907  21.61527 
 994  35.50352  33.77277  32.12476  29.07232  21.58124 
 995  35.44996  33.72091  32.07647  29.02878  21.55041 
 996  35.39774  33.67195  32.02967  28.98603  21.51929 
 997  35.34685  33.62440  31.98437  28.94529  21.48977 
 998  35.30014  33.57827  31.94057  28.90675  21.46159 
 999  35.25479  33.53654  31.89984  28.87023  21.43502 
1000  35.21222  33.49627  31.86220  28.83574  21.40981 
1001  35.17243  33.45744  31.82609  28.80330  21.38621 
1002  35.13403  33.42155  31.79151  28.77186  21.36235 
1003  35.09986  33.38862  31.76004  28.74369  21.34174 
1004  35.06850  33.35866  31.73169  28.71777  21.32252 
1005  35.03998  33.33167  31.70647  28.69512  21.30704 
1006  35.01286  33.30616  31.68280  28.67351  21.29108 
1007  34.98857  33.28213  31.65912  28.65275  21.27534 
1008  34.96284  33.25808  31.63542  28.63023  21.25606 
1009  34.94281  33.23853  31.61756  28.61381  21.24359 
1010  34.92564  33.22198  31.60190  28.59965  21.23299 
1011  34.90845  33.20692  31.58750  28.58636  21.22239 
1012  34.89556  33.19488  31.57531  28.57534  21.21367 
1013  34.88553  33.18433  31.56581  28.56659  21.20684 
1014  34.87693  33.17680  31.55852  28.55994  21.20189 
1015  34.86976  33.16926  31.55139  28.55311  21.19552 
1016  34.86546  33.16625  31.54790  28.54978  21.19269 
1017  34.86546  33.16474  31.54679  28.54873  21.19198 
1018  34.86546  33.16474  31.54679  28.54873  21.19127 
1019  34.86689  33.16625  31.54822  28.54978  21.19104 
1020  34.87262  33.17077  31.55313  28.55433  21.19481 
1021  34.87980  33.17831  31.55931  28.55994  21.19859 
1022  34.88696  33.18584  31.56691  28.56659  21.20307 
1023  34.89843  33.19638  31.57673  28.57551  21.20943 
1024  34.91132  33.20844  31.58781  28.58549  21.21650 
1025  34.92420  33.22198  31.60032  28.59650  21.22381 
1026  34.94424  33.24004  31.61867  28.61381  21.23888 
1027  34.96284  33.25658  31.63542  28.62813  21.24900 
1028  34.98142  33.27612  31.65122  28.64367  21.25982 
1029  35.00286  33.29565  31.67175  28.66147  21.27275 
1030  35.02713  33.31816  31.69227  28.68031  21.28662 
1031  35.04854  33.33916  31.71277  28.69773  21.29742 
1032  35.07563  33.36465  31.73641  28.72020  21.31408 
1033  35.10413  33.39162  31.76161  28.74230  21.32979 
1034  35.13403  33.42155  31.78994  28.76821  21.34971 
1035  35.16533  33.44996  31.81823  28.79375  21.36867 
1036  35.19801  33.48134  31.84808  28.82048  21.38832 
1037  35.23209  33.51418  31.87946  28.84840  21.40864 
1038  35.26897  33.54847  31.91238  28.87854  21.43175 
1039  35.30722  33.58571  31.94683  28.91003  21.45554 
1040  35.34402  33.61993  31.97968  28.93994  21.47696 
1041  35.38502  33.65858  32.01718  28.97344  21.50256 
1042  35.42457  33.69718  32.05308  29.00690  21.52742 
1043  35.46688  33.73722  32.09206  29.04152  21.55319 
1044  35.51197  33.78017  32.13254  29.07851  21.58171 
1045  35.55559  33.82159  32.17142  29.11409  21.60787 
1046  35.60056  33.86444  32.21335  29.15219  21.63654 
1047  35.64828  33.91018  32.25678  29.19127  21.66656 
1048  35.69454  33.95438  32.29861  29.22910  21.69401 
1049  35.74353  34.00000  32.34192  29.26927  21.72441 
1050  35.79246  34.04702  32.38673  29.30938  21.75408 
1051  35.84271  34.09546  32.43147  29.35064  21.78509 
1052  35.89290  34.14381  32.47923  29.39303  21.81719 
1053  35.94440  34.19210  32.52384  29.43416  21.84720 
1054  35.99583  34.24033  32.57146  29.47643  21.87830 
1055  36.04719  34.28994  32.61748  29.51847  21.90913 
1056  36.09986  34.33948  32.66497  29.56197  21.94106 
1057  36.15384  34.39186  32.71391  29.60642  21.97453 
1058  36.21050  34.44561  32.76583  29.65350  22.01091 
1059  36.26569  34.49783  32.81615  29.69916  22.04518 
1060  36.32079  34.55141  32.86639  29.74475  22.07918 
1061  36.37719  34.60347  32.91656  29.79027  22.11312 
1062  36.43350  34.65833  32.96817  29.83689  22.14836 
1063  36.48835  34.71023  33.01666  29.88110  22.17995 
1064  36.54449  34.76348  33.06811  29.92775  22.21486 
1065  36.60191  34.81810  33.11948  29.97449  22.24949 
1066  36.65651  34.87119  33.17077  30.01983  22.28228 
1067  36.71512  34.92564  33.22349  30.06759  22.31838 
1068  36.77227  34.98000  33.27461  30.11412  22.35285 
1069  36.82798  35.03427  33.32566  30.16074  22.38705 
1070  36.88631  35.08846  33.37814  30.20844  22.42298 
1071  36.94184  35.14257  33.42903  30.25376  22.45573 
1072  36.99865  35.19659  33.47985  30.30033  22.49000 
1073  37.05671  35.25053  33.53357  30.34815  22.52621 
1074  37.11334  35.30439  33.58273  30.39342  22.55903 
1075  37.16988  35.35817  33.63480  30.43994  22.59358 
1076  37.22499  35.41186  33.68531  30.48541  22.62675 
1077  37.28136  35.46548  33.73574  30.53211  22.66186 
1078  37.33631  35.51760  33.78609  30.57630  22.69361 
1079  37.39117  35.56824  33.83489  30.62058  22.72576 
1080  37.44596  35.62162  33.88510  30.66627  22.75983 
1081  37.49933  35.67212  33.93229  30.70944  22.79079 
1082  37.55263  35.72254  33.98088  30.75272  22.82214 
1083  37.60585  35.77290  34.02940  30.79610  22.85388 
1084  37.65900  35.82318  34.07639  30.83958  22.88602 
1085  37.71074  35.87339  34.12331  30.88187  22.91681 
1086  37.76242  35.92214  34.17016  30.92426  22.94798 
1087  37.81402  35.97082  34.21696  30.96563  22.97825 
1088  37.86291  36.01805  34.26077  31.00581  23.00717 
1089  37.91306  36.06522  34.30598  31.04626  23.03671 
1090  37.96051  36.11094  34.34967  31.08553  23.06512 
1091  38.00921  36.15660  34.39331  31.12491  23.09394 
1092  38.05785  36.20221  34.43690  31.16440  23.12358 
1093  38.10381  36.24638  34.47753  31.20176  23.15059 
1094  38.14708  36.28774  34.51811  31.23684  23.17499 
1095  38.19293  36.33043  34.55865  31.27443  23.20323 
1096  38.23611  36.37169  34.59769  31.30974  23.22886 
1097  38.27793  36.41291  34.63668  31.34422  23.25382 
1098  38.32101  36.45271  34.67420  31.37865  23.27960 
1099  38.36144  36.49109  34.71167  31.41226  23.30429 
1100  38.40182  36.52944  34.74766  31.44487  23.32831 
1101  38.43956  36.56638  34.78218  31.47650  23.35166 
1102  38.47857  36.60328  34.81810  31.50936  23.37734 
1103  38.51493  36.63741  34.85111  31.53902  23.39915 
1104  38.55127  36.67152  34.88409  31.56881  23.42179 
1105  38.58497  36.70422  34.91418  31.59652  23.44206 
1106  38.61865  36.73690  34.94567  31.62436  23.46338 
1107  38.65100  36.76683  34.97427  31.65122  23.48361 
1108  38.68204  36.79674  35.00286  31.67649  23.50340 
1109  38.71175  36.82526  35.02999  31.70173  23.52084 
1110  38.74016  36.85241  35.05567  31.72538  23.53912 
1111  38.76725  36.87818  35.07991  31.74744  23.55525 
1112  38.79562  36.90393  35.10556  31.76948  23.57371 
1113  38.82010  36.92831  35.12692  31.78994  23.58834 
1114  38.84328  36.94997  35.14826  31.80880  23.60233 
1115  38.86515  36.97161  35.16959  31.82923  23.61716 
1116  38.88702  36.99324  35.18949  31.84651  23.63133 
1117  38.90759  37.01216  35.20795  31.86220  23.64339 
1118  38.92557  37.02972  35.22357  31.87789  23.65481 
1119  38.94355  37.04727  35.24060  31.89357  23.66685 
1120  38.96024  37.06211  35.25621  31.90768  23.67699 
1121  38.97563  37.07695  35.26897  31.91865  23.68628 
1122  38.98846  37.08908  35.28172  31.93118  23.69515 
1123  39.00128  37.10121  35.29164  31.94057  23.70169 
1124  39.01154  37.11199  35.30297  31.94996  23.70907 
1125  39.02179  37.12008  35.31147  31.95778  23.71434 
1126  39.02948  37.12815  35.31855  31.96404  23.71898 
1127  39.03588  37.13489  35.32421  31.96873  23.72298 
1128  39.04229  37.14027  35.32987  31.97343  23.72657 
1129  39.04613  37.14431  35.33412  31.97812  23.72931 
1130  39.04741  37.14566  35.33412  31.97812  23.72846 
1131  39.04997  37.14701  35.33695  31.97968  23.73015 
1132  39.04997  37.14701  35.33695  31.97968  23.72973 
1133  39.04741  37.14431  35.33412  31.97812  23.72699 
1134  39.04485  37.14297  35.33129  31.97499  23.72530 
1135  39.03972  37.13758  35.32704  31.97186  23.72151 
1136  39.03460  37.13220  35.32138  31.96561  23.71708 
1137  39.02691  37.12547  35.31572  31.96091  23.71223 
1138  39.01923  37.11738  35.30722  31.95309  23.70654 
1139  39.00897  37.10795  35.29873  31.94526  23.70042 
1140  38.99744  37.09717  35.28881  31.93587  23.69240 
1141  38.98461  37.08369  35.27605  31.92491  23.68354 
1142  38.97050  37.07020  35.26329  31.91238  23.67425 
1143  38.95510  37.05536  35.24912  31.89984  23.66432 
1144  38.93584  37.03782  35.23209  31.88260  23.65079 
1145  38.91786  37.02026  35.21505  31.86848  23.63980 
1146  38.89730  37.00135  35.19659  31.85122  23.62668 
1147  38.87544  36.98108  35.17670  31.83394  23.61313 
1148  38.85228  36.95808  35.15537  31.81352  23.59746 
1149  38.82782  36.93508  35.13403  31.79465  23.58283 
1150  38.80206  36.91070  35.10983  31.77263  23.56608 
1151  38.77499  36.88496  35.08561  31.75059  23.55037 
1152  38.74532  36.85648  35.05852  31.72538  23.53083 
1153  38.71563  36.82798  35.03284  31.70173  23.51404 
1154  38.68462  36.79810  35.00429  31.67649  23.49511 
1155  38.65230  36.76683  34.97427  31.64964  23.47552 
1156  38.61736  36.73418  34.94281  31.62088  23.45378 
1157  38.57979  36.70014  34.90988  31.59098  23.43139 
1158  38.54348  36.66470  34.87693  31.56137  23.40983 
1159  38.50584  36.62922  34.84250  31.53062  23.38782 
1160  38.46427  36.58961  34.80517  31.49651  23.36172 
1161  38.42395  36.55133  34.76780  31.46379  23.33817 
1162  38.38099  36.51027  34.73039  31.42881  23.31223 
1163  38.33667  36.46779  34.69006  31.39267  23.28562 
1164  38.29230  36.42664  34.64967  31.35682  23.25984 
1165  38.24657  36.38131  34.60780  31.31868  23.23166 
1166  38.19686  36.33593  34.56298  31.27827  23.20108 
1167  38.14840  36.28912  34.51956  31.23924  23.17283 
1168  38.09856  36.24086  34.47463  31.19776  23.14217 
1169  38.04734  36.19254  34.42819  31.15654  23.11233 
1170  37.99474  36.14416  34.38168  31.11415  23.08138 
1171  37.94074  36.09155  34.33220  31.06944  23.04799 
1172  37.88535  36.03887  34.28265  31.02467  23.01543 
1173  37.82988  35.98611  34.23156  30.97886  22.98173 
1174  37.77301  35.93188  34.18040  30.93202  22.94711 
1175  37.71339  35.87617  34.12624  30.88398  22.91157 
1176  37.65236  35.81759  34.07051  30.83359  22.87335 
1177  37.59255  35.76031  34.01617  30.78425  22.83725 
1178  37.52999  35.70014  33.96027  30.73272  22.79869 
1179  37.46732  35.64127  33.90428  30.68241  22.76203 
1180  37.40321  35.58089  33.84524  30.62956  22.72290 
1181  37.33899  35.51901  33.78757  30.57679  22.68414 
1182  37.27197  35.45560  33.72684  30.52163  22.64266 
1183  37.20350  35.39068  33.66601  30.46638  22.60155 
1184  37.13489  35.32563  33.60357  30.40987  22.55926 
1185  37.06616  35.26046  33.54102  30.35342  22.51733 
1186  36.99594  35.19233  33.47686  30.29571  22.47443 
1187  36.92560  35.12549  33.41257  30.23789  22.43167 
1188  36.85376  35.05709  33.34816  30.17880  22.38772 
1189  36.77907  34.98714  33.28062  30.11843  22.34256 
1190  36.70559  34.91705  33.21445  30.05794  22.29776 
1191  36.63059  34.84537  33.14664  29.99617  22.25152 
1192  36.55544  34.77355  33.07869  29.93443  22.20563 
1193  36.47876  34.70014  33.00909  29.87122  22.15829 
1194  36.40192  34.62658  32.93782  29.80788  22.11108 
1195  36.32355  34.55286  32.86792  29.74458  22.06422 
1196  36.24362  34.47753  32.79634  29.67861  22.01431 
1197  36.16490  34.40203  32.72461  29.61368  21.96634 
1198  36.08462  34.32492  32.65119  29.54742  21.91666 
1199  36.00278  34.24763  32.57760  29.48101  21.86733 
1200  35.92075  34.17016  32.50385  29.41326  21.81628 
1201  35.83992  34.09252  32.42992  29.34655  21.76718 
1202  35.75472  34.01176  32.35274  29.27729  21.71474 
1203  35.67212  33.93229  32.27693  29.20890  21.66402 
1204  35.58651  33.85262  32.20093  29.13915  21.61157 
1205  35.50211  33.77129  32.12320  29.06923  21.55945 
1206  35.41610  33.68976  32.04684  28.99914  21.50721 
1207  35.33129  33.60952  31.97030  28.93009  21.45647 
1208  35.24628  33.52760  31.89200  28.85966  21.40421 
1209  35.15821  33.44398  31.81195  28.78767  21.35018 
1210  35.07136  33.36166  31.73484  28.71672  21.29789 
1211  34.98285  33.27762  31.65438  28.64437  21.24359 
1212  34.89556  33.19488  31.57515  28.57289  21.19104 
1213  34.80804  33.11042  31.49476  28.50000  21.13646 
1214  34.71887  33.02575  31.41528  28.42815  21.08364 
1215  34.63091  32.94237  31.33544  28.35613  21.03045 
1216  34.54272  32.85879  31.25540  28.28374  20.97737 
1217  34.45142  32.77194  31.17274  28.20851  20.92032 
1218  34.36277  32.68639  31.09212  28.13574  20.86672 
1219  34.27244  32.60061  31.01016  28.06118  20.81081 
1220  34.18187  32.51461  30.92895  27.98785  20.75669 
1221  34.09252  32.42992  30.84753  27.91415  20.70217 
1222  34.00147  32.34347  30.76573  27.84026  20.64728 
1223  33.91165  32.25833  30.68371  27.76599  20.59199 
1224  33.82011  32.17142  30.60147  27.69152  20.53655 
1225  33.72981  32.08582  30.52016  27.61793  20.48219 
1226  33.64075  32.00000  30.43863  27.54415  20.42768 
1227  33.55145  31.91551  30.35786  27.47126  20.37449 
1228  33.46042  31.82923  30.27573  27.39690  20.31896 
1229  33.37064  31.74272  30.19454  27.32343  20.26500 
1230  33.27762  31.65438  30.11063  27.24702  20.20668 
1231  33.18735  31.56913  30.02882  27.17296  20.15143 
1232  33.09683  31.48301  29.94679  27.09852  20.09577 
1233  33.00909  31.39889  29.86687  27.02647  20.04320 
1234  32.91960  31.31342  29.78557  26.95274  19.98825 
1235  32.83291  31.23252  29.70892  26.88420  19.93991 
1236  32.74599  31.14900  29.62955  26.81250  19.88743 
1237  32.65731  31.06525  29.54979  26.74061  19.83431 
1238  32.56993  30.98241  29.47117  26.66965  19.78231 
1239  32.48384  30.89952  29.39235  26.59831  19.72967 
1240  32.39599  30.81623  29.31314  26.52659  19.67613 
1241  32.31099  30.73532  29.23628  26.45713  19.62600 
1242  32.22422  30.65290  29.15785  26.38617  19.57294 
1243  32.13876  30.57156  29.08041  26.31615  19.52102 
1244  32.05464  30.49131  29.00414  26.24710  19.47023 
1245  31.97030  30.41200  28.92888  26.17919  19.42035 
1246  31.88730  30.33249  28.85325  26.11092  19.36982 
1247  31.80409  30.25293  28.77742  26.04208  19.31839 
1248  31.72066  30.17449  28.70279  25.97441  19.26785 
1249  31.64016  30.09701  28.62901  25.90772  19.21848 
1250  31.55931  30.02066  28.55643  25.84202  19.17003 
1251  31.47888  29.94428  28.48368  25.77596  19.12041 
1252  31.40096  29.87005  28.41320  25.71245  19.07407 
1253  31.32172  29.79463  28.34131  25.64703  19.02446 
1254  31.24372  29.72019  28.27048  25.58281  18.97604 
1255  31.16681  29.64709  28.20071  25.51960  18.92855 
1256  31.09228  29.57634  28.13343  25.45879  18.88412 
1257  31.01790  29.50542  28.06599  25.39764  18.83852 
1258  30.94333  29.43433  27.99839  25.33614  18.79202 
1259  30.87005  29.36460  27.93188  25.27568  18.74647 
1260  30.79805  29.29590  27.86647  25.21646  18.70187 
1261  30.72719  29.22858  27.80234  25.15810  18.65824 
1262  30.65763  29.16230  27.73932  25.10100  18.61559 
1263  30.58938  29.09725  27.67743  25.04496  18.57391 
1264  30.52114  29.03222  27.61539  24.98860  18.53132 
1265  30.45538  28.96964  27.55594  24.93492  18.49162 
1266  30.38964  28.90709  27.49636  24.88071  18.45102 
1267  30.32524  28.84580  27.43793  24.82781  18.41114 
1268  30.26219  28.78593  27.38083  24.77620  18.37281 
1269  30.20066  28.72734  27.32526  24.72590  18.33549 
1270  30.14001  28.66967  27.27031  24.67610  18.29836 
1271  30.08072  28.61328  27.21672  24.62763  18.26253 
1272  30.02249  28.55784  27.16395  24.57987  18.22690 
1273  29.96531  28.50333  27.11218  24.53284  18.19176 
1274  29.90953  28.45031  27.06160  24.48714  18.15792 
1275  29.85498  28.39841  27.01240  24.44238  18.12485 
1276  29.80168  28.34766  26.96405  24.39877  18.09226 
1277  29.74979  28.29823  26.91710  24.35611  18.06073 
1278  29.69916  28.25013  26.87117  24.31461  18.02997 
1279  29.64979  28.20319  26.82667  24.27447  18.00028 
1280  29.60203  28.15777  26.78339  24.23530  17.97165 
1281  29.55554  28.11370  26.74135  24.19752  17.94380 
1282  29.51051  28.07080  26.70075  24.16071  17.91675 
1283  29.46676  28.02927  26.66121  24.12509  17.89078 
1284  29.42448  27.98911  26.62311  24.09066  17.86561 
1285  29.38350  27.95013  26.58609  24.05743  17.84124 
1286  29.34399  27.91272  26.55052  24.02520  17.81769 
1287  29.30597  27.87651  26.51622  23.99437  17.79523 
1288  29.26944  27.84188  26.48320  23.96456  17.77357 
1289  29.23440  27.80845  26.45165  23.93616  17.75303 
1290  29.20051  27.77643  26.42120  23.90878  17.73302 
1291  29.16830  27.74599  26.39223  23.88263  17.71440 
1292  29.13760  27.71660  26.36456  23.85770  17.69633 
1293  29.10825  27.68881  26.33800  23.83380  17.67908 
1294  29.08058  27.66243  26.31311  23.81155  17.66296 
1295  29.05409  27.63747  26.28935  23.79012  17.64738 
1296  29.02912  27.61377  26.26690  23.76994  17.63264 
1297  29.00586  27.59167  26.24576  23.75100  17.61902 
1298  28.98396  27.57082  26.22613  23.73310  17.60625 
1299  28.96325  27.55123  26.20744  23.71645  17.59375 
1300  28.94443  27.53325  26.19046  23.70106  17.58266 
1301  28.92715  27.51690  26.17480  23.68692  17.57242 
1302  28.91107  27.50164  26.16027  23.67383  17.56246 
1303  28.89637  27.48763  26.14708  23.66178  17.55363 
1304  28.88339  27.47526  26.13523  23.65100  17.54565 
1305  28.87179  27.46416  26.12470  23.64149  17.53824 
1306  28.86122  27.45414  26.11513  23.63282  17.53140 
1307  28.85256  27.44595  26.10728  23.62562  17.52598 
1308  28.84528  27.43884  26.10057  23.61948  17.52113 
1309  28.83904  27.43301  26.09483  23.61419  17.51685 
1310  28.83453  27.42863  26.09061  23.61038  17.51371 
1311  28.83123  27.42535  26.08755  23.60741  17.51114 
1312  28.82967  27.42389  26.08620  23.60614  17.51028 
1313  28.82915  27.42335  26.08563  23.60551  17.50914 
1314  28.83002  27.42408  26.08620  23.60614  17.50943 
1315  28.83193  27.42608  26.08812  23.60763  17.51028 
1316  28.83557  27.42936  26.09119  23.61038  17.51200 
1317  28.84025  27.43392  26.09540  23.61419  17.51457 
1318  28.84614  27.43939  26.10077  23.61885  17.51771 
1319  28.85342  27.44631  26.10709  23.62456  17.52170 
1320  28.86174  27.45414  26.11456  23.63133  17.52627 
1321  28.87127  27.46307  26.12317  23.63895  17.53168 
1322  28.88200  27.47344  26.13293  23.64762  17.53796 
1323  28.89394  27.48472  26.14364  23.65734  17.54480 
1324  28.90709  27.49727  26.15550  23.66812  17.55278 
1325  28.92127  27.51054  26.16830  23.67953  17.56104 
1326  28.93665  27.52526  26.18225  23.69219  17.57014 
1327  28.95272  27.54070  26.19676  23.70527  17.57982 
1328  28.97033  27.55739  26.21259  23.71961  17.59034 
1329  28.98879  27.57481  26.22937  23.73479  17.60142 
1330  29.00810  27.59330  26.24690  23.75058  17.61335 
1331  29.02861  27.61286  26.26557  23.76741  17.62583 
1332  29.04996  27.63313  26.28479  23.78487  17.63859 
1333  29.07232  27.65448  26.30494  23.80336  17.65220 
1334  29.09553  27.67653  26.32603  23.82247  17.66664 
1335  29.11958  27.69946  26.34787  23.84219  17.68135 
1336  29.14464  27.72328  26.37063  23.86273  17.69661 
1337  29.17053  27.74797  26.39413  23.88410  17.71243 
1338  29.19709  27.77319  26.41817  23.90586  17.72879 
1339  29.22465  27.79946  26.44315  23.92864  17.74599 
1340  29.25286  27.82625  26.46866  23.95183  17.76316 
1341  29.28173  27.85373  26.49491  23.97561  17.78117 
1342  29.31126  27.88190  26.52169  23.99979  17.79916 
1343  29.34161  27.91093  26.54920  24.02499  17.81797 
1344  29.37261  27.94047  26.57743  24.05057  17.83732 
1345  29.40408  27.97034  26.60601  24.07634  17.85665 
1346  29.43637  28.00107  26.63513  24.10291  17.87652 
1347  29.46914  28.03230  26.66496  24.13006  17.89693 
1348  29.50254  28.06403  26.69513  24.15740  17.91731 
1349  29.53659  28.09644  26.72620  24.18553  17.93851 
1350  29.57076  28.12917  26.75724  24.21363  17.95940 
1351  29.60574  28.16239  26.78899  24.24253  17.98110 
1352  29.64102  28.19592  26.82089  24.27138  18.00250 
1353  29.67676  28.23013  26.85330  24.30082  18.02471 
1354  29.71279  28.26447  26.88605  24.33043  18.04688 
1355  29.74945  28.29929  26.91932  24.36062  18.06931 
1356  29.78641  28.33461  26.95274  24.39119  18.09226 
1357  29.82365  28.37005  26.98648  24.42171  18.11519 
1358  29.86101  28.40546  27.02036  24.45240  18.13781 
1359  29.89866  28.44134  27.05439  24.48326  18.16067 
1360  29.93627  28.47701  27.08838  24.51387  18.18351 
1361  29.97432  28.51333  27.12305  24.54526  18.20687 
1362  30.01233  28.54943  27.15732  24.57621  18.22965 
1363  30.05062  28.58584  27.19191  24.60772  18.25267 
1364  30.08854  28.62185  27.22609  24.63859  18.27539 
1365  30.12806  28.65955  27.26206  24.67124  18.30027 
1366  30.16621  28.69599  27.29670  24.70243  18.32294 
1367  30.20464  28.73239  27.33130  24.73358  18.34584 
1368  30.24417  28.77012  27.36732  24.76651  18.37063 
1369  30.28250  28.80642  27.40182  24.79778  18.39348 
1370  30.32095  28.84302  27.43647  24.82902  18.41657 
1371  30.35918  28.87940  27.47126  24.86041  18.43963 
1372  30.39770  28.91591  27.50600  24.89177  18.46267 
1373  30.43600  28.95255  27.54070  24.92308  18.48594 
1374  30.47441  28.98896  27.57535  24.95456  18.50919 
1375  30.51278  29.02551  27.61014  24.98620  18.53267 
1376  30.55111  29.06200  27.64507  25.01759  18.55613 
1377  30.58954  29.09863  27.67978  25.04935  18.58010 
1378  30.62777  29.13520  27.71462  25.08107  18.60403 
1379  30.66496  29.17036  27.74815  25.11115  18.62633 
1380  30.70195  29.20565  27.78165  25.14160  18.64859 
1381  30.73890  29.24090  27.81528  25.17201  18.67137 
1382  30.77353  29.27354  27.84601  25.19960  18.69037 
1383  30.81039  29.30870  27.87974  25.23014  18.71363 
1384  30.84493  29.34144  27.91057  25.25787  18.73313 
1385  30.87928  29.37397  27.94155  25.28557  18.75287 
1386  30.91359  29.40663  27.97249  25.31343  18.77312 
1387  30.94673  29.43807  28.00214  25.34009  18.79175 
1388  30.98209  29.47185  28.03444  25.36967  18.81489 
1389  31.01500  29.50305  28.06421  25.39646  18.83428 
1390  31.04674  29.53320  28.09270  25.42184  18.85205 
1391  31.07957  29.56434  28.12241  25.44877  18.87220 
1392  31.11109  29.59426  28.15084  25.47450  18.89100 
1393  31.14241  29.62415  28.17925  25.50020  18.91005 
1394  31.17258  29.65282  28.20638  25.52469  18.92776 
1395  31.20272  29.68147  28.23367  25.54936  18.94598 
1396  31.23268  29.70993  28.26093  25.57401  18.96470 
1397  31.26132  29.73718  28.28675  25.59746  18.98183 
1398  31.28866  29.76307  28.31131  25.61952  18.99789 
1399  31.31581  29.78909  28.33602  25.64196  19.01421 
1400  31.34294  29.81493  28.36071  25.66437  19.03129 
1401  31.36877  29.83957  28.38415  25.68560  19.04705 
1402  31.39458  29.86403  28.40757  25.70681  19.06332 
1403  31.41894  29.88729  28.42956  25.72683  19.07826 
1404  31.44201  29.90919  28.45048  25.74568  19.09188 
1405  31.46617  29.93226  28.47262  25.76606  19.10811 
1406  31.48778  29.95296  28.49210  25.78372  19.12119 
1407  31.50825  29.97215  28.51052  25.80019  19.13269 
1408  31.53078  29.99400  28.53139  25.81957  19.14889 
1409  31.54964  30.01183  28.54838  25.83505  19.15985 
1410  31.56961  30.03098  28.56676  25.85189  19.17342 
1411  31.58829  30.04896  28.58391  25.86755  19.18567 
1412  31.60570  30.06543  28.59965  25.88185  19.19662 
1413  31.62056  30.07940  28.61293  25.89363  19.20443 
1414  31.63700  30.09468  28.62744  25.90695  19.21484 
1415  31.65122  30.10847  28.64071  25.91891  19.22394 
1416  31.66544  30.12242  28.65397  25.93126  19.23356 
1417  31.67807  30.13370  28.66461  25.94070  19.24032 
1418  31.68912  30.14498  28.67525  25.95053  19.24760 
1419  31.70016  30.15493  28.68467  25.95901  19.25357 
1420  31.70962  30.16471  28.69425  25.96767  19.26032 
1421  31.71908  30.17333  28.70226  25.97499  19.26577 
1422  31.72854  30.18178  28.71045  25.98249  19.27200 
1423  31.73484  30.18775  28.71620  25.98750  19.27485 
1424  31.74114  30.19487  28.72299  25.99385  19.28056 
1425  31.74586  30.19950  28.72734  25.99769  19.28289 
1426  31.75059  30.20281  28.73047  26.00039  19.28419 
1427  31.75532  30.20728  28.73482  26.00442  19.28834 
1428  31.75689  30.20910  28.73656  26.00596  19.28912 
1429  31.75689  30.20977  28.73708  26.00635  19.28860 
1430  31.75846  30.21026  28.73743  26.00673  19.28886 
1431  31.75689  30.20943  28.73674  26.00596  19.28808 
1432  31.75532  30.20728  28.73465  26.00385  19.28600 
1433  31.75374  30.20629  28.73378  26.00346  19.28652 
1434  31.75059  30.20281  28.73047  26.00039  19.28419 
1435  31.74429  30.19801  28.72577  25.99596  19.28030 
1436  31.73956  30.19304  28.72107  25.99173  19.27745 
1437  31.73169  30.18559  28.71376  25.98480  19.27148 
1438  31.72381  30.17797  28.70645  25.97826  19.26603 
1439  31.71435  30.16902  28.69791  25.97037  19.25980 
1440  31.70489  30.15991  28.68937  25.96247  19.25409 
1441  31.69385  30.14946  28.67944  25.95361  19.24708 
1442  31.68122  30.13785  28.66810  25.94321  19.23928 
1443  31.66860  30.12474  28.65572  25.93183  19.23018 
1444  31.65438  30.11146  28.64315  25.92046  19.22160 
1445  31.63858  30.09568  28.62796  25.90637  19.21041 
1446  31.62246  30.08106  28.61398  25.89401  19.20156 
1447  31.60316  30.06260  28.59633  25.87740  19.18776 
1448  31.58496  30.04513  28.57971  25.86252  19.17681 
1449  31.56517  30.02632  28.56186  25.84628  19.16481 
1450  31.54410  30.00617  28.54260  25.82886  19.15150 
1451  31.52269  29.98600  28.52350  25.81162  19.13897 
1452  31.49873  29.96298  28.50158  25.79147  19.12354 
1453  31.47443  29.93994  28.47964  25.77169  19.10890 
1454  31.45012  29.91689  28.45769  25.75209  19.09476 
1455  31.42419  29.89231  28.43431  25.73111  19.07957 
1456  31.39681  29.86637  28.40968  25.70875  19.06332 
1457  31.36686  29.83773  28.38239  25.68385  19.04390 
1458  31.33800  29.81023  28.35630  25.66028  19.02709 
1459  31.30751  29.78137  28.32878  25.63552  19.00895 
1460  31.27571  29.75097  28.30000  25.60957  18.98973 
1461  31.24356  29.72053  28.27119  25.58359  18.97103 
1462  31.21009  29.68872  28.24093  25.55641  18.95125 
1463  31.17387  29.65434  28.20798  25.52626  18.92829 
1464  31.13872  29.62077  28.17623  25.49784  18.90767 
1465  31.10080  29.58479  28.14196  25.46645  18.88412 
1466  31.06396  29.54979  28.10872  25.43678  18.86293 
1467  31.02435  29.51220  28.07294  25.40433  18.83852 
1468  30.98467  29.47423  28.03694  25.37183  18.81462 
1469  30.94447  29.43637  28.00089  25.33949  18.79149 
1470  30.90065  29.39439  27.96087  25.30277  18.76299 
1471  30.85887  29.35473  27.92329  25.26915  18.73900 
1472  30.81558  29.31365  27.88423  25.23391  18.71336 
1473  30.77093  29.27115  27.84385  25.19742  18.68663 
1474  30.72361  29.22602  27.80072  25.15810  18.65637 
1475  30.67719  29.18184  27.75878  25.12031  18.62874 
1476  30.62923  29.13623  27.71552  25.08107  18.59946 
1477  30.58104  29.09055  27.67201  25.04177  18.57095 
1478  30.53146  29.04324  27.62698  25.00120  18.54077 
1479  30.48147  28.99586  27.58206  24.96037  18.51108 
1480  30.43008  28.94685  27.53543  24.91827  18.47972 
1481  30.37729  28.89671  27.48763  24.87489  18.44722 
1482  30.32425  28.84632  27.43975  24.83163  18.41548 
1483  30.27012  28.79479  27.39069  24.78729  18.38233 
1484  30.21556  28.74283  27.34136  24.74268  18.34939 
1485  30.15957  28.68972  27.29084  24.69696  18.31557 
1486  30.10282  28.63564  27.23931  24.65035  18.28086 
1487  30.04530  28.58076  27.18713  24.60305  18.24555 
1488  29.98700  28.52543  27.13448  24.55545  18.21044 
1489  29.92758  28.46875  27.08062  24.50653  18.17388 
1490  29.86737  28.41162  27.02610  24.45711  18.13698 
1491  29.80654  28.35366  26.97091  24.40717  18.09972 
1492  29.74492  28.29505  26.91505  24.35652  18.06211 
1493  29.68232  28.23544  26.85852  24.30535  18.02387 
1494  29.61908  28.17517  26.80112  24.25325  17.98527 
1495  29.55503  28.11423  26.74322  24.20083  17.94603 
1496  29.49017  28.05263  26.68445  24.14746  17.90642 
1497  29.42465  27.99018  26.62499  24.09377  17.86617 
1498  29.35830  27.92723  26.56501  24.03934  17.82582 
1499  29.29130  27.86342  26.50434  23.98437  17.78482 
1500  29.22362  27.79892  26.44296  23.92885  17.74345 
1501  29.15528  27.73391  26.38105  23.87279  17.70169 
1502  29.08625  27.66803  26.31843  23.81617  17.65956 
1503  29.01655  27.60181  26.25548  23.75900  17.61732 
1504  28.94616  27.53489  26.19179  23.70127  17.57441 
1505  28.87508  27.46725  26.12738  23.64297  17.53111 
1506  28.80347  27.39909  26.06262  23.58432  17.48742 
1507  28.73134  27.33039  25.99711  23.52509  17.44334 
1508  28.65851  27.26114  25.93126  23.46551  17.39914 
1509  28.58496  27.19118  25.86484  23.40534  17.35425 
1510  28.51123  27.12103  25.79806  23.34481  17.30953 
1511  28.43660  27.05014  25.73053  23.28369  17.26412 
1512  28.36159  26.97869  25.66242  23.22219  17.21830 
1513  28.28586  26.90669  25.59394  23.16010  17.17236 
1514  28.20993  26.83431  25.52528  23.09784  17.12600 
1515  28.13379  26.76210  25.45643  23.03563  17.08010 
1516  28.05691  26.68876  25.38681  22.97259  17.03350 
1517  27.97964  26.61522  25.31679  22.90939  16.98676 
1518  27.90197  26.54129  25.24658  22.84579  16.93960 
1519  27.82373  26.46696  25.17578  22.78179  16.89201 
1520  27.74545  26.39261  25.10498  22.71762  16.84488 
1521  27.66659  26.31748  25.03358  22.65303  16.79702 
1522  27.58732  26.24214  24.96197  22.58805  16.74903 
1523  27.50782  26.16639  24.88996  22.52310  16.70090 
1524  27.42791  26.09042  24.81774  22.45774  16.65233 
1525  27.34758  26.01423  24.74510  22.39196  16.60361 
1526  27.26720  25.93781  24.67245  22.32622  16.55506 
1527  27.18658  25.86097  24.59939  22.26028  16.50636 
1528  27.10572  25.78391  24.52611  22.19392  16.45722 
1529  27.02462  25.70681  24.45281  22.12758  16.40823 
1530  26.94327  25.62967  24.37929  22.06128  16.35909 
1531  26.86168  25.55210  24.30556  21.99455  16.30981 
1532  26.78022  25.47450  24.23180  21.92784  16.26038 
1533  26.69850  25.39665  24.15781  21.86092  16.21111 
1534  26.61654  25.31897  24.08381  21.79404  16.16168 
1535  26.53469  25.24104  24.00979  21.72694  16.11211 
1536  26.45260  25.16287  23.93554  21.65987  16.06238 
1537  26.37063  25.08506  23.86147  21.59282  16.01312 
1538  26.28878  25.00720  23.78739  21.52603  15.96402 
1539  26.20630  24.92870  23.71265  21.45833  15.91352 
1540  26.12413  24.85055  23.63853  21.39112  15.86380 
1541  26.04208  24.77236  23.56417  21.32393  15.81423 
1542  25.95997  24.69433  23.49000  21.25676  15.76452 
1543  25.87779  24.61625  23.41559  21.18962  15.71464 
1544  25.79593  24.53834  23.34159  21.12250  15.66525 
1545  25.71420  24.46058  23.26757  21.05564  15.61570 
1546  25.63240  24.38278  23.19353  20.98857  15.56599 
1547  25.55073  24.30514  23.11947  20.92152  15.51612 
1548  25.46939  24.22767  23.04604  20.85497  15.46706 
1549  25.38819  24.15057  22.97259  20.78846  15.41752 
1550  25.30751  24.07364  22.89956  20.72245  15.36847 
1551  25.22657  23.99667  22.82630  20.65599  15.31927 
1552  25.14637  23.92028  22.75346  20.59029  15.27023 
1553  25.06611  23.84387  22.68083  20.52438  15.22137 
1554  24.98620  23.76805  22.60863  20.45898  15.17267 
1555  24.90663  23.69219  22.53642  20.39363  15.12382 
1556  24.82740  23.61673  22.46464  20.32855  15.07581 
1557  24.74854  23.54167  22.39330  20.26401  15.02764 
1558  24.67002  23.46721  22.32219  20.19950  14.97965 
1559  24.59228  23.39295  22.25174  20.13579  14.93218 
1560  24.51469  23.31931  22.18152  20.07212  14.88489 
1561  24.43706  23.24543  22.11131  20.00850  14.83745 
1562  24.36001  23.17197  22.04132  19.94492  14.78986 
1563  24.28353  23.09913  21.97203  19.88215  14.74280 
1564  24.20764  23.02694  21.90320  19.81994  14.69660 
1565  24.13234  22.95539  21.83506  19.75829  14.65094 
1566  24.05743  22.88406  21.76741  19.69670  14.60514 
1567  23.98291  22.81315  21.69977  19.63543  14.55919 
1568  23.90899  22.74269  21.63284  19.57473  14.51413 
1569  23.83590  22.67311  21.56664  19.51487  14.46962 
1570  23.76321  22.60420  21.50093  19.45533  14.42532 
1571  23.69135  22.53575  21.43595  19.39665  14.38159 
1572  23.61991  22.46775  21.37101  19.33779  14.33806 
1573  23.54910  22.40022  21.30704  19.27978  14.29475 
1574  23.47935  22.33383  21.24382  19.22264  14.25272 
1575  23.41004  22.26791  21.18112  19.16586  14.21056 
1576  23.34138  22.20270  21.11895  19.10968  14.16898 
1577  23.27338  22.13798  21.05754  19.05413  14.12799 
1578  23.20625  22.07419  20.99690  18.99921  14.08723 
1579  23.14001  22.01113  20.93705  18.94518  14.04742 
1580  23.07423  21.94858  20.87750  18.89127  14.00750 
1581  23.00913  21.88675  20.81850  18.83799  13.96818 
1582  22.94537  21.82613  20.76078  18.78590  13.93018 
1583  22.88187  21.76580  20.70362  18.73393  13.89172 
1584  22.81951  21.70645  20.64728  18.68315  13.85424 
1585  22.75764  21.64763  20.59126  18.63277  13.81702 
1586  22.69714  21.59004  20.53655  18.58306  13.78078 
1587  22.63736  21.53323  20.48243  18.53429  13.74482 
1588  22.57853  21.47743  20.42939  18.48648  13.70949 
1589  22.52044  21.42218  20.37695  18.43909  13.67479 
1590  22.46308  21.36773  20.32511  18.39212  13.64038 
1591  22.40714  21.31455  20.27461  18.34666  13.60698 
1592  22.35173  21.26194  20.22449  18.30137  13.57387 
1593  22.29753  21.21037  20.17573  18.25733  13.54142 
1594  22.24410  21.15940  20.12734  18.21346  13.50889 
1595  22.19189  21.10971  20.08009  18.17086  13.47776 
1596  22.14069  21.06110  20.03397  18.12926  13.44730 
1597  22.09027  21.01333  19.98825  18.08812  13.41678 
1598  22.04110  20.96640  19.94392  18.04799  13.38731 
1599  21.99273  20.92056  19.90025  18.00833  13.35814 
1600  21.94561  20.87582  19.85749  17.96997  13.32967 
1601  21.89954  20.83195  19.81590  17.93209  13.30188 
1602  21.85406  20.78870  19.77473  17.89497  13.27403 
1603  21.81032  20.74705  19.73499  17.85889  13.24764 
1604  21.76718  20.70604  19.69619  17.82358  13.22120 
1605  21.72533  20.66616  19.65833  17.78932  13.19583 
1606  21.68456  20.62741  19.62116  17.75584  13.17080 
1607  21.64486  20.58932  19.58520  17.72315  13.14648 
1608  21.60602  20.55237  19.54994  17.69124  13.12250 
1609  21.56850  20.51682  19.51589  17.66041  13.09962 
1610  21.53207  20.48219  19.48307  17.63066  13.07708 
1611  21.49651  20.44823  19.45071  17.60114  13.05527 
1612  21.46229  20.41568  19.41984  17.57327  13.03419 
1613  21.42895  20.38382  19.38943  17.54565  13.01345 
1614  21.39673  20.35338  19.36027  17.51913  12.99385 
1615  21.36563  20.32388  19.33210  17.49371  12.97459 
1616  21.33565  20.29507  19.30466  17.46883  12.95569 
1617  21.30657  20.26746  19.27849  17.44506  12.93793 
1618  21.27863  20.24080  19.25331  17.42211  12.92091 
1619  21.25159  20.21509  19.22862  17.39971  12.90388 
1620  21.22593  20.19059  19.20547  17.37872  12.88798 
1621  21.20118  20.16705  19.18307  17.35828  12.87284 
1622  21.17758  20.14473  19.16168  17.33897  12.85846 
1623  21.15491  20.12312  19.14106  17.32022  12.84445 
1624  21.13339  20.10249  19.12145  17.30260  12.83121 
1625  21.11303  20.08308  19.10314  17.28583  12.81874 
1626  21.09360  20.06465  19.08533  17.26992  12.80703 
1627  21.07487  20.04695  19.06856  17.25456  12.79531 
1628  21.05730  20.03023  19.05282  17.24036  12.78476 
1629  21.04091  20.01449  19.03786  17.22672  12.77498 
1630  21.02570  20.00000  19.02393  17.21424  12.76558 
1631  21.01095  19.98599  19.01052  17.20203  12.75618 
1632  20.99738  19.97323  18.99842  17.19128  12.74833 
1633  20.98499  19.96146  18.98736  17.18110  12.74127 
1634  20.97379  19.95094  18.97736  17.17236  12.73499 
1635  20.96330  19.94091  18.96760  17.16362  12.72831 
1636  20.95376  19.93188  18.95917  17.15605  12.72281 
1637  20.94517  19.92360  18.95152  17.14905  12.71810 
1638  20.93729  19.91607  18.94439  17.14264  12.71338 
1639  20.93060  19.90980  18.93859  17.13739  12.70984 
1640  20.92487  19.90427  18.93330  17.13272  12.70669 
1641  20.91961  19.89950  18.92855  17.12863  12.70394 
1642  20.91554  19.89573  18.92512  17.12542  12.70157 
1643  20.91244  19.89271  18.92221  17.12279  12.70000 
1644  20.90981  19.89020  18.91983  17.12075  12.69843 
1645  20.90813  19.88869  18.91851  17.11958  12.69803 
1646  20.90718  19.88768  18.91772  17.11900  12.69724 
1647  20.90742  19.88794  18.91772  17.11929  12.69803 
1648  20.90813  19.88894  18.91877  17.12016  12.69882 
1649  20.90981  19.89045  18.92036  17.12162  12.70000 
1650  20.91220  19.89271  18.92247  17.12367  12.70157 
1651  20.91531  19.89573  18.92512  17.12600  12.70354 
1652  20.91913  19.89950  18.92881  17.12951  12.70630 
1653  20.92367  19.90377  18.93304  17.13330  12.70945 
1654  20.92893  19.90879  18.93779  17.13768  12.71259 
1655  20.93514  19.91457  18.94334  17.14264  12.71653 
1656  20.94182  19.92084  18.94941  17.14818  12.72085 
1657  20.94875  19.92762  18.95574  17.15401  12.72478 
1658  20.95686  19.93514  18.96312  17.16071  12.72989 
1659  20.96545  19.94342  18.97077  17.16770  12.73499 
1660  20.97427  19.95194  18.97894  17.17498  12.74049 
1661  20.98404  19.96121  18.98763  17.18284  12.74637 
1662  20.99405  19.97073  18.99684  17.19128  12.75225 
1663  21.00476  19.98099  19.00658  17.20000  12.75892 
1664  21.01595  19.99150  19.01657  17.20901  12.76558 
1665  21.02760  20.00275  19.02709  17.21860  12.77263 
1666  21.03996  20.01425  19.03812  17.22875  12.78006 
1667  21.05232  20.02623  19.04967  17.23891  12.78749 
1668  21.06561  20.03871  19.06148  17.24964  12.79531 
1669  21.07914  20.05143  19.07380  17.26065  12.80351 
1670  21.09289  20.06465  19.08612  17.27194  12.81171 
1671  21.10734  20.07835  19.09921  17.28381  12.82030 
1672  21.12203  20.09229  19.11256  17.29566  12.82926 
1673  21.13670  20.10622  19.12590  17.30780  12.83783 
1674  21.15207  20.12088  19.13975  17.32051  12.84757 
1675  21.16743  20.13554  19.15359  17.33292  12.85613 
1676  21.18325  20.15068  19.16794  17.34589  12.86585 
1677  21.19953  20.16606  19.18254  17.35915  12.87595 
1678  21.21556  20.18143  19.19714  17.37210  12.88526 
1679  21.23229  20.19703  19.21198  17.38563  12.89496 
1680  21.24900  20.21311  19.22732  17.39943  12.90504 
1681  21.26594  20.22919  19.24266  17.41321  12.91549 
1682  21.28286  20.24525  19.25799  17.42699  12.92517 
1683  21.30024  20.26179  19.27356  17.44133  12.93561 
1684  21.31760  20.27831  19.28912  17.45537  12.94604 
1685  21.33518  20.29507  19.30518  17.46969  12.95685 
1686  21.35275  20.31182  19.32123  17.48428  12.96727 
1687  21.37031  20.32855  19.33701  17.49857  12.97767 
1688  21.38832  20.34552  19.35304  17.51314  12.98884 
1689  21.40584  20.36222  19.36905  17.52741  12.99923 
1690  21.42335  20.37891  19.38505  17.54195  13.00961 
1691  21.44131  20.39583  19.40103  17.55648  13.02037 
1692  21.45903  20.41299  19.41726  17.57100  13.03112 
1693  21.47673  20.42964  19.43322  17.58550  13.04186 
1694  21.49442  20.44652  19.44916  17.60000  13.05220 
1695  21.51209  20.46338  19.46510  17.61448  13.06331 
1696  21.52975  20.47999  19.48102  17.62895  13.07402 
1697  21.54692  20.49634  19.49667  17.64285  13.08396 
1698  21.56432  20.51292  19.51230  17.65729  13.09465 
1699  21.58147  20.52949  19.52793  17.67145  13.10534 
1700  21.59861  20.54556  19.54354  17.68530  13.11602 
1701  21.61527  20.56161  19.55863  17.69915  13.12593 
1702  21.63215  20.57766  19.57396  17.71299  13.13659 
1703  21.64879  20.59344  19.58903  17.72682  13.14686 
1704  21.66518  20.60898  19.60383  17.74007  13.15675 
1705  21.68133  20.62426  19.61836  17.75359  13.16700 
1706  21.69700  20.63928  19.63288  17.76654  13.17649 
1707  21.71267  20.65430  19.64714  17.77948  13.18636 
1708  21.72809  20.66906  19.66113  17.79241  13.19621 
1709  21.74351  20.68357  19.67486  17.80478  13.20568 
1710  21.75822  20.69783  19.68858  17.81713  13.21476 
1711  21.77269  20.71159  19.70152  17.82891  13.22384 
1712  21.78715  20.72535  19.71472  17.84096  13.23291 
1713  21.80092  20.73861  19.72739  17.85245  13.24160 
1714  21.81445  20.75138  19.73955  17.86365  13.24991 
1715  21.82773  20.76391  19.75146  17.87428  13.25783 
1716  21.84079  20.77643  19.76335  17.88519  13.26612 
1717  21.85337  20.78822  19.77473  17.89553  13.27403 
1718  21.86527  20.79976  19.78560  17.90531  13.28119 
1719  21.87693  20.81081  19.79621  17.91508  13.28834 
1720  21.88858  20.82186  19.80682  17.92456  13.29549 
1721  21.89954  20.83243  19.81666  17.93349  13.30226 
1722  21.91027  20.84250  19.82650  17.94241  13.30902 
1723  21.92054  20.85234  19.83583  17.95077  13.31540 
1724  21.93012  20.86145  19.84439  17.95884  13.32104 
1725  21.93923  20.87031  19.85271  17.96636  13.32666 
1726  21.94812  20.87870  19.86077  17.97359  13.33192 
1727  21.95655  20.88660  19.86832  17.98027  13.33679 
1728  21.96429  20.89402  19.87536  17.98666  13.34129 
1729  21.97203  20.90120  19.88240  17.99305  13.34616 
1730  21.97863  20.90765  19.88819  17.99833  13.34953 
1731  21.98499  20.91363  19.89397  18.00333  13.35328 
1732  21.99091  20.91913  19.89925  18.00805  13.35665 
1733  21.99636  20.92439  19.90427  18.01250  13.35964 
1734  22.00114  20.92893  19.90854  18.01638  13.36226 
1735  22.00545  20.93299  19.91231  18.01971  13.36450 
1736  22.00932  20.93657  19.91557  18.02276  13.36675 
1737  22.01250  20.93967  19.91858  18.02526  13.36825 
1738  22.01500  20.94206  19.92084  18.02720  13.36937 
1739  22.01749  20.94421  19.92285  18.02914  13.37086 
1740  22.01886  20.94564  19.92411  18.03025  13.37124 
1741  22.02022  20.94684  19.92536  18.03108  13.37199 
1742  22.02044  20.94708  19.92561  18.03136  13.37161 
1743  22.02044  20.94708  19.92536  18.03108  13.37161 
1744  22.01976  20.94636  19.92486  18.03053  13.37086 
1745  22.01840  20.94517  19.92360  18.02942  13.36974 
1746  22.01658  20.94326  19.92185  18.02776  13.36825 
1747  22.01409  20.94087  19.91959  18.02581  13.36675 
1748  22.01091  20.93800  19.91658  18.02304  13.36450 
1749  22.00704  20.93418  19.91331  18.01999  13.36226 
1750  22.00273  20.93012  19.90904  18.01610  13.35927 
1751  21.99773  20.92510  19.90452  18.01194  13.35590 
1752  21.99204  20.91985  19.89950  18.00750  13.35290 
1753  21.98590  20.91411  19.89397  18.00250  13.34916 
1754  21.97908  20.90765  19.88768  17.99694  13.34504 
1755  21.97157  20.90048  19.88115  17.99083  13.34054 
1756  21.96361  20.89306  19.87410  17.98444  13.33604 
1757  21.95495  20.88468  19.86605  17.97749  13.33117 
1758  21.94539  20.87558  19.85749  17.96970  13.32516 
1759  21.93559  20.86624  19.84868  17.96163  13.31953 
1760  21.92487  20.85617  19.83910  17.95299  13.31353 
1761  21.91369  20.84538  19.82877  17.94380  13.30677 
1762  21.90183  20.83411  19.81817  17.93405  13.29962 
1763  21.88927  20.82234  19.80707  17.92429  13.29248 
1764  21.87647  20.81009  19.79545  17.91368  13.28495 
1765  21.86253  20.79688  19.78282  17.90251  13.27667 
1766  21.84834  20.78341  19.76993  17.89078  13.26838 
1767  21.83323  20.76921  19.75652  17.87876  13.25934 
1768  21.81765  20.75428  19.74234  17.86589  13.24991 
1769  21.80161  20.73909  19.72790  17.85273  13.24047 
1770  21.78463  20.72293  19.71243  17.83900  13.23027 
1771  21.76718  20.70628  19.69670  17.82470  13.22006 
1772  21.74925  20.68937  19.68070  17.81039  13.20947 
1773  21.73039  20.67148  19.66367  17.79494  13.19773 
1774  21.71129  20.65309  19.64637  17.77920  13.18636 
1775  21.69147  20.63444  19.62830  17.76288  13.17422 
1776  21.67118  20.61504  19.60995  17.74627  13.16207 
1777  21.64971  20.59466  19.59056  17.72879  13.14876 
1778  21.62822  20.57401  19.57090  17.71101  13.13583 
1779  21.60579  20.55286  19.55070  17.69265  13.12212 
1780  21.58310  20.53120  19.53023  17.67399  13.10839 
1781  21.55968  20.50902  19.50923  17.65503  13.09427 
1782  21.53532  20.48585  19.48692  17.63491  13.07899 
1783  21.51069  20.46240  19.46484  17.61477  13.06407 
1784  21.48581  20.43869  19.44222  17.59432  13.04875 
1785  21.45996  20.41421  19.41881  17.57327  13.03304 
1786  21.43362  20.38897  19.39484  17.55164  13.01691 
1787  21.40701  20.36345  19.37060  17.52969  13.00038 
1788  21.37966  20.33765  19.34580  17.50714  12.98384 
1789  21.35158  20.31083  19.32046  17.48428  12.96650 
1790  21.32299  20.28349  19.29456  17.46053  12.94874 
1791  21.29390  20.25586  19.26811  17.43674  12.93097 
1792  21.26429  20.22795  19.24136  17.41235  12.91317 
1793  21.23393  20.19901  19.21380  17.38735  12.89418 
1794  21.20330  20.16978  19.18619  17.36232  12.87556 
1795  21.17239  20.14026  19.15803  17.33695  12.85652 
1796  21.14001  20.10945  19.12877  17.31011  12.83589 
1797  21.10806  20.07909  19.09974  17.28381  12.81679 
1798  21.07534  20.04794  19.07013  17.25688  12.79648 
1799  21.04186  20.01599  19.03970  17.22963  12.77576 
1800  21.00809  19.98399  19.00921  17.20174  12.75539 
1801  20.97403  19.95169  18.97841  17.17382  12.73460 
1802  20.93967  19.91883  18.94730  17.14585  12.71377 
1803  20.90454  19.88542  18.91560  17.11695  12.69252 
1804  20.86888  19.85145  18.88306  17.08772  12.67044 
1805  20.83267  19.81691  18.85020  17.05784  12.64832 
1806  20.79615  19.78231  18.81728  17.02821  12.62656 
1807  20.75909  19.74715  18.78377  16.99765  12.60357 
1808  20.72173  19.71142  18.74993  16.96703  12.58094 
1809  20.68405  19.67537  18.71577  16.93606  12.55826 
1810  20.64582  19.63925  18.68127  16.90503  12.53515 
1811  20.60704  19.60229  18.64618  16.87306  12.51120 
1812  20.56794  19.56502  18.61075  16.84102  12.48759 
1813  20.52852  19.52767  18.57525  16.80893  12.46355 
1814  20.48878  19.48974  18.53915  16.77617  12.43945 
1815  20.44872  19.45173  18.50270  16.74336  12.41531 
1816  20.40809  19.41314  18.46618  16.71048  12.39072 
1817  20.36738  19.37421  18.42905  16.67693  12.36568 
1818  20.32585  19.33494  18.39185  16.64302  12.34058 
1819  20.28398  19.29482  18.35375  16.60843  12.31462 
1820  20.24203  19.25513  18.31584  16.57408  12.28943 
1821  20.20025  19.21536  18.27785  16.53995  12.26418 
1822  20.15763  19.17472  18.23952  16.50515  12.23806 
1823  20.11542  19.13478  18.20137  16.47088  12.21311 
1824  20.07262  19.09398  18.16260  16.43563  12.18729 
1825  20.02923  19.05282  18.12346  16.40030  12.16100 
1826  19.98574  19.01131  18.08397  16.36460  12.13466 
1827  19.94242  18.96998  18.04467  16.32911  12.10867 
1828  19.89824  18.92829  18.00500  16.29294  12.08180 
1829  19.85422  18.88624  17.96497  16.25669  12.05487 
1830  19.80985  18.84410  17.92484  16.22067  12.02830 
1831  19.76537  18.80160  17.88463  16.18425  12.00125 
1832  19.72055  18.75900  17.84405  16.14745  11.97414 
1833  19.67562  18.71657  17.80365  16.11087  11.94697 
1834  19.63084  18.67378  17.76288  16.07420  11.91973 
1835  19.58545  18.63062  17.72202  16.03714  11.89243 
1836  19.54021  18.58763  17.68078  15.99969  11.86465 
1837  19.49487  18.54427  17.63973  15.96277  11.83723 
1838  19.44916  18.50108  17.59858  15.92545  11.80974 
1839  19.40335  18.45752  17.55705  15.88773  11.78177 
1840  19.35794  18.41413  17.51599  15.85055  11.75415 
1841  19.31217  18.37063  17.47455  15.81329  11.72647 
1842  19.26629  18.32703  17.43301  15.77561  11.69872 
1843  19.22030  18.28333  17.39138  15.73785  11.67090 
1844  19.17446  18.23952  17.34993  15.70032  11.64302 
1845  19.12904  18.19643  17.30896  15.66333  11.61594 
1846  19.08271  18.15241  17.26702  15.62530  11.58749 
1847  19.03681  18.10884  17.22556  15.58782  11.55984 
1848  18.99079  18.06488  17.18371  15.55024  11.53170 
1849  18.94492  18.02138  17.14235  15.51258  11.50391 
1850  18.89894  17.97749  17.10088  15.47482  11.47606 
1851  18.85259  17.93349  17.05872  15.43664  11.44727 
1852  18.80718  17.89022  17.01764  15.39935  11.41972 
1853  18.76113  17.84629  16.97586  15.36164  11.39122 
1854  18.71550  17.80281  16.93428  15.32416  11.36354 
1855  18.66976  17.75950  16.89319  15.28660  11.33534 
1856  18.62445  17.71638  16.85200  15.24959  11.30796 
1857  18.57902  17.67314  16.81101  15.21217  11.28007 
1858  18.53375  17.63009  16.76991  15.17498  11.25256 
1859  18.48865  17.58721  16.72902  15.13803  11.22497 
1860  18.44370  17.54423  16.68832  15.10099  11.19732 
1861  18.39919  17.50171  16.64782  15.06453  11.17005 
1862  18.35456  17.45938  16.60753  15.02797  11.14316 
1863  18.30983  17.41695  16.56714  14.99133  11.11530 
1864  18.26582  17.37498  16.52725  14.95527  11.08873 
1865  18.22169  17.33320  16.48727  14.91912  11.06165 
1866  18.17828  17.29162  16.44780  14.88355  11.03540 
1867  18.13450  17.24993  16.40823  14.84722  11.00818 
1868  18.09116  17.20872  16.36887  14.81182  10.98180 
1869  18.04827  17.16799  16.33003  14.77667  10.95582 
1870  18.00555  17.12717  16.29141  14.74178  10.92978 
1871  17.96274  17.08654  16.25269  14.70680  10.90367 
1872  17.92066  17.04670  16.21481  14.67242  10.87842 
1873  17.87904  17.00676  16.17684  14.63796  10.85311 
1874  17.83732  16.96732  16.13939  14.60411  10.82774 
1875  17.79635  16.92808  16.10217  14.57052  10.80278 
1876  17.75528  16.88935  16.06518  14.53685  10.77822 
1877  17.71468  16.85052  16.02841  14.50345  10.75360 
1878  17.67427  16.81220  15.99187  14.47031  10.72893 
1879  17.63434  16.77439  15.95588  14.43780  10.70514 
1880  17.59517  16.73679  15.92011  14.40555  10.68129 
1881  17.55620  16.69970  15.88490  14.37393  10.65786 
1882  17.51713  16.66283  15.84992  14.34225  10.63438 
1883  17.47913  16.62649  15.81518  14.31083  10.61131 
1884  17.44133  16.59066  15.78132  14.28006  10.58867 
1885  17.40402  16.55536  15.74738  14.24991  10.56646 
1886  17.36692  16.51999  15.71401  14.21935  10.54419 
1887  17.33032  16.48515  15.68088  14.18943  10.52188 
1888  17.29451  16.45114  15.64832  14.16016  10.50095 
1889  17.25862  16.41706  15.61602  14.13117  10.47903 
1890  17.22353  16.38353  15.58429  14.10248  10.45801 
1891  17.18924  16.35084  15.55346  14.07444  10.43743 
1892  17.15488  16.31840  15.52224  14.04635  10.41729 
1893  17.12104  16.28650  15.49193  14.01892  10.39663 
1894  17.08801  16.25484  15.46221  13.99178  10.37690 
1895  17.05550  16.22375  15.43243  13.96496  10.35712 
1896  17.02322  16.19321  15.40357  13.93879  10.33780 
1897  16.99206  16.16354  15.37498  13.91330  10.31940 
1898  16.96084  16.13382  15.34699  13.88812  10.30049 
1899  16.93045  16.10497  15.31960  13.86326  10.28202 
1900  16.90030  16.07638  15.29216  13.83835  10.26402 
1901  16.87098  16.04836  15.26565  13.81448  10.24597 
1902  16.84251  16.02124  15.23975  13.79094  10.22888 
1903  16.81398  15.99437  15.21414  13.76772  10.21127 
1904  16.78690  15.96841  15.18980  13.74554  10.19559 
1905  16.75948  15.94240  15.16476  13.72297  10.17792 
1906  16.73290  15.91697  15.14067  13.70109  10.16169 
1907  16.70718  15.89245  15.11721  13.67991  10.14594 
1908  16.68173  15.86852  15.09437  13.65906  10.13065 
1909  16.65683  15.84456  15.07183  13.63855  10.11484 
1910  16.63250  15.82150  15.04992  13.61874  10.10000 
1911  16.60933  15.79937  15.02864  13.59963  10.08563 
1912  16.58644  15.77752  15.00766  13.58050  10.07174 
1913  16.56412  15.75659  14.98766  13.56245  10.05833 
1914  16.54237  15.73563  14.96797  13.54437  10.04440 
1915  16.52120  15.71560  14.94891  13.52738  10.03145 
1916  16.50061  15.69586  14.93017  13.51000  10.01898 
1917  16.48090  15.67705  14.91241  13.49407  10.00700 
1918  16.46147  15.65886  14.89463  13.47813   9.99480 
1919  16.44293  15.64097  14.87784  13.46291   9.98349 
1920  16.42498  15.62402  14.86136  13.44805   9.97246 
1921  16.40732  15.60705  14.84554  13.43354   9.96138 
1922  16.39055  15.59102  14.83037  13.41976   9.95133 
1923  16.37406  15.57562  14.81553  13.40634   9.94128 
1924  16.35818  15.56021  14.80101  13.39291   9.93116 
1925  16.34350  15.54638  14.78783  13.38096   9.92250 
1926  16.32881  15.53222  14.77430  13.36899   9.91343 
1927  16.31441  15.51870  14.76144  13.35702   9.90434 
1928  16.30153  15.50645  14.74958  13.34654   9.89672 
1929  16.28834  15.49387  14.73771  13.33604   9.88868 
1930  16.27636  15.48257  14.72685  13.32591   9.88140 
1931  16.26499  15.47159  14.71666  13.31691   9.87487 
1932  16.25392  15.46124  14.70680  13.30789   9.86828 
1933  16.24377  15.45154  14.69728  13.29962   9.86210 
1934  16.23392  15.44215  14.68843  13.29135   9.85627 
1935  16.22467  15.43341  14.68026  13.28420   9.85084 
1936  16.21604  15.42498  14.67242  13.27705   9.84581 
1937  16.20771  15.41720  14.66492  13.27027   9.84078 
1938  16.20031  15.41006  14.65810  13.26424   9.83651 
1939  16.19321  15.40357  14.65196  13.25858   9.83265 
1940  16.18672  15.39740  14.64616  13.25330   9.82878 
1941  16.18085  15.39188  14.64104  13.24877   9.82573 
1942  16.17529  15.38668  14.63591  13.24424   9.82237 
1943  16.17065  15.38213  14.63181  13.24047   9.81978 
1944  16.16632  15.37823  14.62805  13.23707   9.81759 
1945  16.16230  15.37433  14.62429  13.23405   9.81509 
1946  16.15921  15.37140  14.62156  13.23140   9.81336 
1947  16.15611  15.36815  14.61882  13.22876   9.81132 
1948  16.15395  15.36652  14.61677  13.22725   9.81050 
1949  16.15209  15.36457  14.61506  13.22573   9.80938 
1950  16.15054  15.36327  14.61403  13.22460   9.80867 
1951  16.14992  15.36262  14.61335  13.22422   9.80841 
1952  16.14961  15.36229  14.61301  13.22384   9.80826 
1953  16.14961  15.36229  14.61335  13.22384   9.80857 
1954  16.15023  15.36294  14.61369  13.22460   9.80892 
1955  16.15116  15.36392  14.61438  13.22535   9.80943 
1956  16.15240  15.36489  14.61574  13.22611   9.81005 
1957  16.15518  15.36782  14.61814  13.22876   9.81270 
1958  16.15673  15.36913  14.61951  13.22989   9.81280 
1959  16.15952  15.37173  14.62190  13.23216   9.81453 
1960  16.16230  15.37433  14.62464  13.23442   9.81606 
1961  16.16570  15.37758  14.62771  13.23707   9.81815 
1962  16.16942  15.38116  14.63113  13.24009   9.82034 
1963  16.17344  15.38506  14.63489  13.24349   9.82273 
1964  16.17807  15.38928  14.63865  13.24689   9.82527 
1965  16.18302  15.39415  14.64309  13.25104   9.82843 
1966  16.18796  15.39903  14.64787  13.25519   9.83138 
1967  16.19382  15.40422  14.65299  13.26009   9.83489 
1968  16.19907  15.40941  14.65776  13.26424   9.83789 
1969  16.20556  15.41558  14.66356  13.26951   9.84185 
1970  16.21173  15.42109  14.66901  13.27441   9.84525 
1971  16.21820  15.42757  14.67515  13.28006   9.84931 
1972  16.22498  15.43405  14.68128  13.28533   9.85322 
1973  16.23207  15.44085  14.68775  13.29097   9.85738 
1974  16.23977  15.44798  14.69456  13.29737   9.86215 
1975  16.24715  15.45510  14.70136  13.30338   9.86646 
1976  16.25484  15.46253  14.70816  13.30977   9.87102 
1977  16.26315  15.46997  14.71564  13.31653   9.87588 
1978  16.27114  15.47773  14.72277  13.32291   9.88069 
1979  16.27943  15.48580  14.73058  13.33004   9.88575 
1980  16.28834  15.49419  14.73839  13.33717   9.89111 
1981  16.29693  15.50226  14.74619  13.34391   9.89606 
1982  16.30552  15.51064  14.75398  13.35103   9.90136 
1983  16.31472  15.51934  14.76245  13.35852   9.90692 
1984  16.32391  15.52804  14.77058  13.36638   9.91252 
1985  16.33340  15.53705  14.77938  13.37386   9.91842 
1986  16.34258  15.54574  14.78749  13.38170   9.92391 
1987  16.35206  15.55474  14.79595  13.38917   9.92940 
1988  16.36154  15.56374  14.80473  13.39701   9.93529 
1989  16.37132  15.57305  14.81351  13.40485   9.94113 
1990  16.38109  15.58268  14.82262  13.41305   9.94741 
1991  16.39055  15.59166  14.83105  13.42088   9.95294 
1992  16.40030  15.60064  14.83947  13.42870   9.95846 
1993  16.41006  15.60993  14.84857  13.43652   9.96444 
1994  16.41981  15.61922  14.85732  13.44470   9.97046 
1995  16.42985  15.62882  14.86674  13.45325   9.97692 
1996  16.43959  15.63809  14.87548  13.46105   9.98263 
1997  16.44932  15.64736  14.88422  13.46885   9.98849 
1998  16.45934  15.65695  14.89329  13.47702   9.99475 
1999  16.46906  15.66621  14.90201  13.48518  10.00050 
2000  16.47847  15.67514  14.91073  13.49296  10.00650 
2001  16.48818  15.68439  14.91945  13.50111  10.01249 
2002  16.49788  15.69363  14.92816  13.50889  10.01848 
2003  16.50757  15.70287  14.93687  13.51703  10.02447 
2004  16.51696  15.71178  14.94557  13.52479  10.03045 
2005  16.52634  15.72069  14.95393  13.53218  10.03594 
2006  16.53572  15.72959  14.96262  13.54031  10.04241 
2007  16.54449  15.73817  14.97064  13.54732  10.04739 
2008  16.55385  15.74675  14.97898  13.55507  10.05336 
2009  16.56261  15.75532  14.98699  13.56245  10.05932 
2010  16.57106  15.76357  14.99467  13.56945  10.06429 
2011  16.57981  15.77181  15.00267  13.57682  10.06976 
2012  16.58855  15.78005  15.01033  13.58381  10.07522 
2013  16.59639  15.78765  15.01766  13.59044  10.07968 
2014  16.60482  15.79557  15.02531  13.59706  10.08514 
2015  16.61295  15.80316  15.03263  13.60404  10.09009 
2016  16.62077  15.81076  15.03995  13.61066  10.09554 
2017  16.62829  15.81771  15.04659  13.61653  10.10000 
2018  16.63550  15.82466  15.05324  13.62278  10.10445 
2019  16.64272  15.83161  15.05955  13.62865  10.10891 
2020  16.64962  15.83825  15.06619  13.63451  10.11336 
2021  16.65653  15.84487  15.07249  13.64001  10.11731 
2022  16.66283  15.85087  15.07813  13.64515  10.12126 
2023  16.66913  15.85686  15.08377  13.65028  10.12472 
2024  16.67513  15.86253  15.08907  13.65540  10.12867 
2025  16.68053  15.86758  15.09404  13.65943  10.13163 
2026  16.68622  15.87293  15.09901  13.66419  10.13509 
2027  16.69161  15.87797  15.10397  13.66858  10.13854 
2028  16.69611  15.88238  15.10828  13.67223  10.14101 
2029  16.70090  15.88710  15.11258  13.67626  10.14396 
2030  16.70509  15.89088  15.11622  13.67955  10.14643 
2031  16.70898  15.89465  15.11985  13.68284  10.14840 
2032  16.71287  15.89843  15.12316  13.68576  10.15086 
2033  16.71616  15.90157  15.12614  13.68868  10.15234 
2034  16.71945  15.90472  15.12911  13.69124  10.15480 
2035  16.72214  15.90723  15.13142  13.69343  10.15579 
2036  16.72453  15.90943  15.13341  13.69525  10.15677 
2037  16.72692  15.91163  15.13572  13.69708  10.15825 
2038  16.72812  15.91289  15.13671  13.69781  10.15874 
2039  16.72961  15.91414  15.13803  13.69890  10.15923 
2040  16.73081  15.91540  15.13935  13.70000  10.16022 
2041  16.73141  15.91572  15.13968  13.70037  10.16022 
2042  16.73200  15.91634  15.14001  13.70073  10.16022 
2043  16.73171  15.91603  15.13968  13.70037  10.15972 
2044  16.73171  15.91603  15.13968  13.70037  10.15972 
2045  16.73081  15.91509  15.13902  13.69963  10.15874 
2046  16.72991  15.91414  15.13803  13.69890  10.15825 
2047  16.72812  15.91257  15.13671  13.69744  10.15726 
2048  16.72633  15.91100  15.13473  13.69562  10.15579 
2049  16.72423  15.90880  15.13275  13.69379  10.15431 
2050  16.72124  15.90629  15.13043  13.69160  10.15283 
2051  16.71795  15.90283  15.12713  13.68868  10.15037 
2052  16.71466  15.89969  15.12415  13.68612  10.14840 
2053  16.71048  15.89591  15.12052  13.68284  10.14594 
2054  16.70629  15.89151  15.11655  13.67918  10.14298 
2055  16.70120  15.88710  15.11192  13.67516  10.14002 
2056  16.69611  15.88207  15.10728  13.67077  10.13706 
2057  16.69072  15.87671  15.10232  13.66638  10.13361 
2058  16.68472  15.87104  15.09702  13.66126  10.13015 
